PE FL                   SPECTRUM    ASCII       PEDS        1.60        
  -1
PM97E7~1
23/10/10
16:57:09.00
23/10/10
16:57:09.00


444.500000
1









LS55
45.00
5.00
5.00
SCAN
1
20
100
100
0
500
0
2
0
1
7
ON
500 450 
1 0 0
#HDR
-1
-1
#GR
NM

0.00002384185791015625
0.0
300.000000
0.500000
290
8
48.485573
0.606996
#DATA
300.000000	9.749000  
300.500000	11.574915 
301.000000	13.269200 
301.500000	14.976013 
302.000000	16.626599 
302.500000	18.172350 
303.000000	19.611129 
303.500000	20.708149 
304.000000	21.384389 
304.500000	21.973199 
305.000000	22.398090 
305.500000	22.872318 
306.000000	23.382825 
306.500000	23.687718 
307.000000	24.195888 
307.500000	24.647506 
308.000000	25.082250 
308.500000	25.276711 
309.000000	25.539237 
309.500000	25.746903 
310.000000	26.240511 
310.500000	26.949196 
311.000000	27.341688 
311.500000	28.095589 
312.000000	28.495212 
312.500000	29.100782 
313.000000	29.453441 
313.500000	29.690709 
314.000000	29.790772 
314.500000	30.125127 
315.000000	30.600326 
315.500000	30.701473 
316.000000	31.216297 
316.500000	31.459426 
317.000000	31.822603 
317.500000	32.136637 
318.000000	32.165153 
318.500000	31.725129 
319.000000	31.273245 
319.500000	30.778534 
320.000000	30.138454 
320.500000	29.718690 
321.000000	29.261479 
321.500000	28.944343 
322.000000	29.068215 
322.500000	29.384718 
323.000000	29.433615 
323.500000	29.585269 
324.000000	29.682839 
324.500000	29.704903 
325.000000	29.710685 
325.500000	29.375265 
326.000000	28.702368 
326.500000	28.119907 
327.000000	27.843655 
327.500000	27.336086 
328.000000	26.905681 
328.500000	26.602603 
329.000000	26.318054 
329.500000	26.273313 
330.000000	25.905334 
330.500000	25.383767 
331.000000	24.649190 
331.500000	23.797244 
332.000000	22.689501 
332.500000	21.737994 
333.000000	21.054549 
333.500000	20.592873 
334.000000	20.652433 
334.500000	20.749109 
335.000000	20.992590 
335.500000	21.293443 
336.000000	21.442266 
336.500000	21.390763 
337.000000	21.369487 
337.500000	21.456615 
338.000000	21.802147 
338.500000	22.698917 
339.000000	23.870172 
339.500000	25.694264 
340.000000	28.178381 
340.500000	31.155760 
341.000000	34.220539 
341.500000	37.202068 
342.000000	39.608582 
342.500000	41.993059 
343.000000	44.059518 
343.500000	45.447704 
344.000000	46.481209 
344.500000	47.320948 
345.000000	48.113105 
345.500000	48.485573 
346.000000	48.270259 
346.500000	46.843727 
347.000000	45.228050 
347.500000	43.126264 
348.000000	40.389443 
348.500000	37.393231 
349.000000	34.607807 
349.500000	32.137942 
350.000000	29.926205 
350.500000	27.925417 
351.000000	25.320181 
351.500000	22.835156 
352.000000	20.231953 
352.500000	17.554316 
353.000000	14.903882 
353.500000	12.680765 
354.000000	10.824851 
354.500000	9.398453  
355.000000	8.475444  
355.500000	7.693099  
356.000000	7.169061  
356.500000	6.769552  
357.000000	6.418223  
357.500000	6.107579  
358.000000	5.865892  
358.500000	5.560997  
359.000000	5.238793  
359.500000	4.946120  
360.000000	4.675818  
360.500000	4.379122  
361.000000	4.025993  
361.500000	3.629853  
362.000000	3.347493  
362.500000	3.227284  
363.000000	3.103467  
363.500000	3.002030  
364.000000	2.830576  
364.500000	2.774081  
365.000000	2.798783  
365.500000	2.834018  
366.000000	2.818437  
366.500000	2.849933  
367.000000	3.033438  
367.500000	3.210512  
368.000000	3.368720  
368.500000	3.414058  
369.000000	3.526703  
369.500000	3.760068  
370.000000	3.865643  
370.500000	3.874351  
371.000000	3.814115  
371.500000	3.757211  
372.000000	3.690097  
372.500000	3.498770  
373.000000	3.249062  
373.500000	3.036891  
374.000000	2.959270  
374.500000	2.857893  
375.000000	2.787023  
375.500000	2.768927  
376.000000	2.796530  
376.500000	2.949139  
377.000000	3.044479  
377.500000	3.106756  
378.000000	3.124092  
378.500000	3.189850  
379.000000	3.258909  
379.500000	3.266631  
380.000000	3.274854  
380.500000	3.230650  
381.000000	3.230711  
381.500000	3.252240  
382.000000	3.221091  
382.500000	3.129313  
383.000000	2.999734  
383.500000	2.859005  
384.000000	2.644943  
384.500000	2.416441  
385.000000	2.169795  
385.500000	1.965595  
386.000000	1.882288  
386.500000	1.874882  
387.000000	1.933080  
387.500000	2.063038  
388.000000	2.261200  
388.500000	2.398978  
389.000000	2.488816  
389.500000	2.507352  
390.000000	2.491444  
390.500000	2.449312  
391.000000	2.365698  
391.500000	2.273777  
392.000000	2.164548  
392.500000	2.125355  
393.000000	2.115995  
393.500000	2.099083  
394.000000	2.051900  
394.500000	1.993203  
395.000000	1.910480  
395.500000	1.817907  
396.000000	1.736196  
396.500000	1.605392  
397.000000	1.536720  
397.500000	1.510079  
398.000000	1.520086  
398.500000	1.522102  
399.000000	1.501150  
399.500000	1.475041  
400.000000	1.427895  
400.500000	1.368224  
401.000000	1.232082  
401.500000	1.085430  
402.000000	0.962890  
402.500000	0.889639  
403.000000	0.847886  
403.500000	0.826663  
404.000000	0.879716  
404.500000	0.981361  
405.000000	1.088480  
405.500000	1.168649  
406.000000	1.275682  
406.500000	1.398189  
407.000000	1.530838  
407.500000	1.618281  
408.000000	1.640277  
408.500000	1.646889  
409.000000	1.617517  
409.500000	1.534921  
410.000000	1.385730  
410.500000	1.259034  
411.000000	1.160314  
411.500000	1.099341  
412.000000	1.085366  
412.500000	1.066135  
413.000000	1.089602  
413.500000	1.112779  
414.000000	1.116049  
414.500000	1.051528  
415.000000	0.990894  
415.500000	0.937248  
416.000000	0.887726  
416.500000	0.888772  
417.000000	0.892762  
417.500000	0.959975  
418.000000	1.024219  
418.500000	1.109523  
419.000000	1.165645  
419.500000	1.220120  
420.000000	1.253098  
420.500000	1.250770  
421.000000	1.225996  
421.500000	1.156795  
422.000000	1.084263  
422.500000	1.009666  
423.000000	0.963170  
423.500000	0.914103  
424.000000	0.898966  
424.500000	0.894107  
425.000000	0.938183  
425.500000	0.982644  
426.000000	1.032970  
426.500000	1.081280  
427.000000	1.126892  
427.500000	1.170406  
428.000000	1.170582  
428.500000	1.143746  
429.000000	1.079202  
429.500000	1.018126  
430.000000	0.952429  
430.500000	0.923323  
431.000000	0.899789  
431.500000	0.904151  
432.000000	0.936774  
432.500000	0.976105  
433.000000	0.988105  
433.500000	0.960023  
434.000000	0.896875  
434.500000	0.809760  
435.000000	0.742718  
435.500000	0.679521  
436.000000	0.628597  
436.500000	0.606996  
437.000000	0.635599  
437.500000	0.677910  
438.000000	0.726582  
438.500000	0.755872  
439.000000	0.768417  
439.500000	0.800803  
440.000000	0.822044  
440.500000	0.841490  
441.000000	0.856615  
441.500000	0.893878  
442.000000	0.935047  
442.500000	0.982157  
443.000000	1.028072  
443.500000	1.045169  
444.000000	1.055324  
444.500000	1.027957  

