PE FL                   SPECTRUM    ASCII       PEDS        1.60        
  -1
QU65AA~1
23/10/11
13:59:26.00
23/10/11
13:59:26.00


424.500000
1









LS55
316.00
5.00
5.00
SCAN
1
16
100
100
0
100
0
1
0
1
7
ON
430 316 
1 0 0
#HDR
-1
-1
#GR
NM

0.00002384185791015625
0.0
330.000000
0.500000
190
8
107.560313
12.378000
#DATA
330.000000	12.378000  
330.500000	12.904314  
331.000000	13.495884  
331.500000	14.044249  
332.000000	14.502469  
332.500000	14.909274  
333.000000	15.392902  
333.500000	15.972263  
334.000000	16.730531  
334.500000	17.481958  
335.000000	18.277529  
335.500000	19.216108  
336.000000	20.317561  
336.500000	21.645118  
337.000000	23.257064  
337.500000	25.234895  
338.000000	27.535560  
338.500000	30.261007  
339.000000	33.192918  
339.500000	36.166187  
340.000000	39.047162  
340.500000	41.782906  
341.000000	44.363811  
341.500000	46.827312  
342.000000	49.190673  
342.500000	51.540225  
343.000000	54.032495  
343.500000	56.701043  
344.000000	59.515373  
344.500000	62.361556  
345.000000	65.092923  
345.500000	67.721286  
346.000000	70.293897  
346.500000	72.517326  
347.000000	74.572933  
347.500000	76.409237  
348.000000	78.092580  
348.500000	79.782036  
349.000000	81.569512  
349.500000	83.459159  
350.000000	85.526115  
350.500000	87.838884  
351.000000	90.136962  
351.500000	92.525683  
352.000000	94.867332  
352.500000	96.892961  
353.000000	98.679434  
353.500000	100.159930 
354.000000	101.124170 
354.500000	101.757097 
355.000000	102.148038 
355.500000	102.331175 
356.000000	102.525595 
356.500000	102.992536 
357.000000	103.568674 
357.500000	104.519595 
358.000000	105.649416 
358.500000	106.613097 
359.000000	107.303335 
359.500000	107.560313 
360.000000	107.401218 
360.500000	106.974336 
361.000000	106.333670 
361.500000	105.533926 
362.000000	104.864337 
362.500000	104.400747 
363.000000	104.182520 
363.500000	103.915175 
364.000000	103.487256 
364.500000	102.925878 
365.000000	102.423732 
365.500000	101.875146 
366.000000	101.290350 
366.500000	100.542488 
367.000000	99.621644  
367.500000	99.001811  
368.000000	98.326829  
368.500000	97.572191  
369.000000	96.741887  
369.500000	95.836727  
370.000000	94.854095  
370.500000	93.853019  
371.000000	92.638883  
371.500000	91.123118  
372.000000	89.605792  
372.500000	88.144813  
373.000000	86.802709  
373.500000	85.780242  
374.000000	84.915498  
374.500000	84.264566  
375.000000	83.767264  
375.500000	83.241732  
376.000000	82.582538  
376.500000	81.628415  
377.000000	80.575461  
377.500000	79.314215  
378.000000	77.999811  
378.500000	76.562563  
379.000000	75.156108  
379.500000	73.803403  
380.000000	72.360418  
380.500000	71.032994  
381.000000	69.723254  
381.500000	68.684212  
382.000000	67.786292  
382.500000	66.917537  
383.000000	66.080916  
383.500000	65.353235  
384.000000	64.816369  
384.500000	64.168155  
385.000000	63.424788  
385.500000	62.566657  
386.000000	61.718772  
386.500000	60.958195  
387.000000	60.066165  
387.500000	59.002880  
388.000000	57.748766  
388.500000	56.537333  
389.000000	55.146807  
389.500000	53.746918  
390.000000	52.361857  
390.500000	50.969884  
391.000000	49.760779  
391.500000	48.810900  
392.000000	48.165883  
392.500000	47.567499  
393.000000	47.137925  
393.500000	46.619810  
394.000000	46.136045  
394.500000	45.536051  
395.000000	44.664280  
395.500000	43.472726  
396.000000	42.211595  
396.500000	41.000492  
397.000000	39.726307  
397.500000	38.477713  
398.000000	37.209869  
398.500000	36.157931  
399.000000	35.316668  
399.500000	34.558064  
400.000000	33.638809  
400.500000	32.757529  
401.000000	32.029177  
401.500000	31.343413  
402.000000	30.602610  
402.500000	29.760902  
403.000000	29.050635  
403.500000	28.349055  
404.000000	27.708156  
404.500000	26.916119  
405.000000	26.141225  
405.500000	25.596664  
406.000000	25.270075  
406.500000	25.016417  
407.000000	24.641803  
407.500000	24.297521  
408.000000	23.880128  
408.500000	23.517717  
409.000000	23.057273  
409.500000	22.499860  
410.000000	21.985544  
410.500000	21.647689  
411.000000	21.499927  
411.500000	21.398328  
412.000000	21.335405  
412.500000	21.191670  
413.000000	20.978962  
413.500000	20.700046  
414.000000	20.374212  
414.500000	19.957057  
415.000000	19.625911  
415.500000	19.322797  
416.000000	19.060545  
416.500000	18.802799  
417.000000	18.547810  
417.500000	18.236175  
418.000000	18.004605  
418.500000	17.909838  
419.000000	17.814579  
419.500000	17.842055  
420.000000	17.787734  
420.500000	17.722707  
421.000000	17.610004  
421.500000	17.385329  
422.000000	16.985519  
422.500000	16.485154  
423.000000	15.996697  
423.500000	15.379382  
424.000000	14.852753  
424.500000	14.312064  

