PE FL                   SPECTRUM    ASCII       PEDS        1.60        
  -1
QUENCH~1
23/10/11
13:42:48.00
23/10/11
13:42:48.00


424.500000
1









LS55
316.00
5.00
5.00
SCAN
1
16
100
100
0
100
0
1
0
1
7
ON
435 365 
1 0 0
#HDR
-1
-1
#GR
NM

0.00002384185791015625
0.0
330.000000
0.500000
190
8
107.043087
9.032999
#DATA
330.000000	9.032999   
330.500000	10.738404  
331.000000	12.263615  
331.500000	13.717300  
332.000000	15.039517  
332.500000	16.190453  
333.000000	17.125337  
333.500000	17.796741  
334.000000	18.216321  
334.500000	18.667459  
335.000000	19.258731  
335.500000	19.980233  
336.000000	20.896387  
336.500000	22.164116  
337.000000	23.894452  
337.500000	26.000104  
338.000000	28.303362  
338.500000	30.745310  
339.000000	33.263035  
339.500000	35.811154  
340.000000	38.363542  
340.500000	40.775728  
341.000000	43.248163  
341.500000	45.890285  
342.000000	48.507167  
342.500000	50.878890  
343.000000	53.181490  
343.500000	55.625740  
344.000000	58.024397  
344.500000	60.561860  
345.000000	62.970931  
345.500000	65.476750  
346.000000	68.165307  
346.500000	70.969655  
347.000000	73.615415  
347.500000	76.175996  
348.000000	78.966967  
348.500000	81.584552  
349.000000	84.011720  
349.500000	86.046358  
350.000000	87.767409  
350.500000	89.303953  
351.000000	90.737645  
351.500000	92.108019  
352.000000	93.390032  
352.500000	94.917207  
353.000000	96.551207  
353.500000	98.168163  
354.000000	99.743646  
354.500000	101.286640 
355.000000	102.855804 
355.500000	104.152890 
356.000000	105.267042 
356.500000	106.076050 
357.000000	106.631492 
357.500000	107.024242 
358.000000	107.043087 
358.500000	106.791976 
359.000000	106.249393 
359.500000	105.859467 
360.000000	105.655520 
360.500000	105.726806 
361.000000	105.924725 
361.500000	106.033877 
362.000000	106.073969 
362.500000	105.803664 
363.000000	105.033573 
363.500000	103.669028 
364.000000	102.215528 
364.500000	100.810506 
365.000000	99.697325  
365.500000	98.869738  
366.000000	98.208747  
366.500000	97.774016  
367.000000	97.536428  
367.500000	97.335676  
368.000000	96.879790  
368.500000	96.383136  
369.000000	95.782236  
369.500000	94.986343  
370.000000	94.163604  
370.500000	93.170359  
371.000000	92.107903  
371.500000	90.972703  
372.000000	89.544344  
372.500000	87.722058  
373.000000	85.871583  
373.500000	84.166448  
374.000000	82.541903  
374.500000	81.123643  
375.000000	79.912042  
375.500000	78.991843  
376.000000	78.332630  
376.500000	77.630494  
377.000000	76.702506  
377.500000	75.571123  
378.000000	74.479903  
378.500000	73.398990  
379.000000	72.379433  
379.500000	71.363351  
380.000000	70.487199  
380.500000	69.909051  
381.000000	69.439841  
381.500000	68.951160  
382.000000	68.333307  
382.500000	67.454097  
383.000000	66.435848  
383.500000	65.363455  
384.000000	64.190246  
384.500000	62.921603  
385.000000	61.640996  
385.500000	60.302418  
386.000000	58.931052  
386.500000	57.644211  
387.000000	56.348761  
387.500000	55.065198  
388.000000	53.908678  
388.500000	52.920084  
389.000000	52.083515  
389.500000	51.328864  
390.000000	50.579798  
390.500000	49.902310  
391.000000	49.228276  
391.500000	48.498784  
392.000000	47.739566  
392.500000	46.871922  
393.000000	45.852933  
393.500000	44.683586  
394.000000	43.483227  
394.500000	42.229235  
395.000000	41.013848  
395.500000	39.798783  
396.000000	38.689471  
396.500000	37.817799  
397.000000	37.132525  
397.500000	36.580224  
398.000000	36.027165  
398.500000	35.622953  
399.000000	35.187586  
399.500000	34.686756  
400.000000	34.199446  
400.500000	33.630414  
401.000000	33.004615  
401.500000	32.391206  
402.000000	31.832737  
402.500000	31.173544  
403.000000	30.582087  
403.500000	29.988152  
404.000000	29.257160  
404.500000	28.561050  
405.000000	27.885163  
405.500000	27.109646  
406.000000	26.321830  
406.500000	25.589172  
407.000000	24.823306  
407.500000	24.150402  
408.000000	23.581382  
408.500000	23.026774  
409.000000	22.621908  
409.500000	22.321158  
410.000000	21.925496  
410.500000	21.564069  
411.000000	21.318125  
411.500000	21.070301  
412.000000	20.825263  
412.500000	20.678985  
413.000000	20.567845  
413.500000	20.459711  
414.000000	20.356406  
414.500000	20.110172  
415.000000	19.813465  
415.500000	19.578739  
416.000000	19.275980  
416.500000	18.928344  
417.000000	18.683594  
417.500000	18.493862  
418.000000	18.357098  
418.500000	18.250637  
419.000000	18.165188  
419.500000	18.062654  
420.000000	17.956932  
420.500000	17.837146  
421.000000	17.584374  
421.500000	17.325624  
422.000000	17.077891  
422.500000	16.782361  
423.000000	16.392007  
423.500000	15.962206  
424.000000	15.575668  
424.500000	15.211861  

