PE FL                   SPECTRUM    ASCII       PEDS        1.60        
  -1
PM0565~1
23/10/10
11:21:45.00
23/10/10
11:21:45.00


444.500000
1









LS55
10.00
5.00
5.00
SCAN
1
20
100
100
0
500
0
2
0
1
7
ON
500 450 
1 0 0
#HDR
-1
-1
#GR
NM

0.00002384185791015625
0.0
300.000000
0.500000
290
8
64.370512
-5.000000
#DATA
300.000000	-5.000000 
300.500000	-4.209930 
301.000000	-3.366647 
301.500000	-2.684895 
302.000000	-1.922715 
302.500000	-1.300696 
303.000000	-0.789584 
303.500000	-0.258887 
304.000000	0.281891  
304.500000	0.654424  
305.000000	0.880070  
305.500000	1.106868  
306.000000	1.042514  
306.500000	0.866973  
307.000000	0.652539  
307.500000	0.237666  
308.000000	-0.299538 
308.500000	-0.829664 
309.000000	-1.400156 
309.500000	-1.923634 
310.000000	-2.042704 
310.500000	-2.044018 
311.000000	-2.118260 
311.500000	-1.952093 
312.000000	-1.663848 
312.500000	-1.360123 
313.000000	-1.055801 
313.500000	-0.856854 
314.000000	-0.915571 
314.500000	-0.785468 
315.000000	-0.387189 
315.500000	-0.339841 
316.000000	-0.282309 
316.500000	-0.200066 
317.000000	-0.186179 
317.500000	-0.363947 
318.000000	-0.514216 
318.500000	-0.847394 
319.000000	-1.160294 
319.500000	-1.010179 
320.000000	-0.887488 
320.500000	-0.588126 
321.000000	-0.031299 
321.500000	0.739053  
322.000000	1.439572  
322.500000	2.260810  
323.000000	3.100107  
323.500000	3.897896  
324.000000	5.041042  
324.500000	6.184737  
325.000000	7.428170  
325.500000	8.861488  
326.000000	10.352925 
326.500000	11.886435 
327.000000	13.328119 
327.500000	14.907736 
328.000000	16.760618 
328.500000	19.067597 
329.000000	21.849797 
329.500000	25.173747 
330.000000	29.039389 
330.500000	32.962097 
331.000000	37.216854 
331.500000	40.979321 
332.000000	44.144211 
332.500000	47.265667 
333.000000	49.923647 
333.500000	52.288207 
334.000000	54.489861 
334.500000	56.481036 
335.000000	58.261345 
335.500000	60.317202 
336.000000	62.098041 
336.500000	63.212035 
337.000000	64.103426 
337.500000	64.370512 
338.000000	64.172212 
338.500000	63.409132 
339.000000	61.808104 
339.500000	59.507380 
340.000000	56.855643 
340.500000	53.989728 
341.000000	50.765065 
341.500000	47.600298 
342.000000	44.430460 
342.500000	41.559086 
343.000000	38.908053 
343.500000	36.305953 
344.000000	33.698996 
344.500000	30.970184 
345.000000	28.308668 
345.500000	25.638187 
346.000000	22.996554 
346.500000	20.377234 
347.000000	17.983711 
347.500000	15.672737 
348.000000	13.726733 
348.500000	12.177413 
349.000000	10.976717 
349.500000	10.041253 
350.000000	9.240157  
350.500000	8.450344  
351.000000	7.697263  
351.500000	7.094829  
352.000000	6.396641  
352.500000	5.756375  
353.000000	5.236648  
353.500000	4.807948  
354.000000	4.365440  
354.500000	4.071731  
355.000000	3.679292  
355.500000	3.241070  
356.000000	2.827179  
356.500000	2.332793  
357.000000	1.948736  
357.500000	1.748110  
358.000000	1.753185  
358.500000	1.866375  
359.000000	2.262715  
359.500000	2.618017  
360.000000	2.879526  
360.500000	2.968936  
361.000000	2.842870  
361.500000	2.635411  
362.000000	2.399446  
362.500000	2.149873  
363.000000	1.873790  
363.500000	1.738117  
364.000000	1.689851  
364.500000	1.703874  
365.000000	1.734130  
365.500000	1.732591  
366.000000	1.734177  
366.500000	1.695678  
367.000000	1.624770  
367.500000	1.486152  
368.000000	1.347255  
368.500000	1.303734  
369.000000	1.295581  
369.500000	1.363688  
370.000000	1.410297  
370.500000	1.518401  
371.000000	1.694038  
371.500000	1.926844  
372.000000	2.114356  
372.500000	2.205182  
373.000000	2.264357  
373.500000	2.270652  
374.000000	2.284550  
374.500000	2.142478  
375.000000	1.928375  
375.500000	1.697925  
376.000000	1.502480  
376.500000	1.324989  
377.000000	1.136420  
377.500000	0.948518  
378.000000	0.831874  
378.500000	0.905283  
379.000000	1.037041  
379.500000	1.137362  
380.000000	1.297624  
380.500000	1.499352  
381.000000	1.686924  
381.500000	1.888667  
382.000000	1.977901  
382.500000	1.988585  
383.000000	1.973106  
383.500000	1.947365  
384.000000	1.852886  
384.500000	1.790488  
385.000000	1.747730  
385.500000	1.667811  
386.000000	1.641120  
386.500000	1.608916  
387.000000	1.575476  
387.500000	1.513686  
388.000000	1.429595  
388.500000	1.312527  
389.000000	1.230574  
389.500000	1.192706  
390.000000	1.175304  
390.500000	1.163303  
391.000000	1.171589  
391.500000	1.246475  
392.000000	1.339957  
392.500000	1.392268  
393.000000	1.453648  
393.500000	1.463100  
394.000000	1.469275  
394.500000	1.501491  
395.000000	1.484543  
395.500000	1.428193  
396.000000	1.410664  
396.500000	1.427163  
397.000000	1.424910  
397.500000	1.467076  
398.000000	1.447762  
398.500000	1.430214  
399.000000	1.463417  
399.500000	1.477301  
400.000000	1.454088  
400.500000	1.431327  
401.000000	1.397724  
401.500000	1.321972  
402.000000	1.265838  
402.500000	1.192496  
403.000000	1.164375  
403.500000	1.192711  
404.000000	1.265427  
404.500000	1.346853  
405.000000	1.448779  
405.500000	1.537043  
406.000000	1.575566  
406.500000	1.580754  
407.000000	1.559100  
407.500000	1.504517  
408.000000	1.461065  
408.500000	1.448501  
409.000000	1.472159  
409.500000	1.507632  
410.000000	1.562457  
410.500000	1.605200  
411.000000	1.629712  
411.500000	1.661112  
412.000000	1.673414  
412.500000	1.717703  
413.000000	1.764051  
413.500000	1.814492  
414.000000	1.821956  
414.500000	1.832027  
415.000000	1.779645  
415.500000	1.717036  
416.000000	1.645646  
416.500000	1.562198  
417.000000	1.549054  
417.500000	1.541498  
418.000000	1.553727  
418.500000	1.562045  
419.000000	1.588144  
419.500000	1.571962  
420.000000	1.549913  
420.500000	1.490255  
421.000000	1.420713  
421.500000	1.415054  
422.000000	1.421918  
422.500000	1.421500  
423.000000	1.420101  
423.500000	1.446153  
424.000000	1.469349  
424.500000	1.502631  
425.000000	1.517834  
425.500000	1.538708  
426.000000	1.569955  
426.500000	1.595685  
427.000000	1.585910  
427.500000	1.539326  
428.000000	1.484555  
428.500000	1.439210  
429.000000	1.399876  
429.500000	1.380953  
430.000000	1.392210  
430.500000	1.434658  
431.000000	1.484475  
431.500000	1.516399  
432.000000	1.509670  
432.500000	1.479875  
433.000000	1.445436  
433.500000	1.395760  
434.000000	1.348211  
434.500000	1.311733  
435.000000	1.292857  
435.500000	1.284013  
436.000000	1.263181  
436.500000	1.230854  
437.000000	1.192261  
437.500000	1.171426  
438.000000	1.164790  
438.500000	1.183689  
439.000000	1.221808  
439.500000	1.284857  
440.000000	1.363738  
440.500000	1.427444  
441.000000	1.459337  
441.500000	1.451323  
442.000000	1.434646  
442.500000	1.391420  
443.000000	1.344926  
443.500000	1.300390  
444.000000	1.267651  
444.500000	1.263916  

