PE FL                   SPECTRUM    ASCII       PEDS        1.60        
  -1
PM2053~1
23/10/12
12:02:31.00
23/10/12
12:02:31.00


444.500000
1









LS55
30.00
5.00
5.00
SCAN
1
20
100
500
0
500
0
2
0
1
7
ON
500 450 
1 0 0
#HDR
-1
-1
#GR
NM

0.00002384185791015625
0.0
250.000000
0.500000
390
8
13.586902
-3.808310
#DATA
250.000000	-0.000000 
250.500000	0.133111  
251.000000	0.274307  
251.500000	0.481061  
252.000000	0.502987  
252.500000	-0.017281 
253.000000	-0.534941 
253.500000	-1.069707 
254.000000	-1.839585 
254.500000	-2.588070 
255.000000	-3.202901 
255.500000	-3.655359 
256.000000	-3.808310 
256.500000	-3.754031 
257.000000	-3.479953 
257.500000	-3.223961 
258.000000	-2.715542 
258.500000	-2.343127 
259.000000	-1.852830 
259.500000	-1.458845 
260.000000	-1.371106 
260.500000	-1.511723 
261.000000	-1.683509 
261.500000	-1.624846 
262.000000	-2.096705 
262.500000	-2.279947 
263.000000	-2.232068 
263.500000	-1.923678 
264.000000	-1.538240 
264.500000	-1.252491 
265.000000	-1.368237 
265.500000	-1.467224 
266.000000	-1.446895 
266.500000	-2.093890 
267.000000	-2.774730 
267.500000	-3.286962 
268.000000	-3.346915 
268.500000	-3.273430 
269.000000	-2.801139 
269.500000	-2.402979 
270.000000	-1.475866 
270.500000	-0.225583 
271.000000	0.692662  
271.500000	1.208609  
272.000000	1.165972  
272.500000	1.004792  
273.000000	0.329463  
273.500000	-0.366914 
274.000000	-1.320639 
274.500000	-1.921256 
275.000000	-2.359751 
275.500000	-2.463630 
276.000000	-2.308376 
276.500000	-2.261669 
277.000000	-1.891067 
277.500000	-1.752012 
278.000000	-1.795321 
278.500000	-2.005720 
279.000000	-1.906260 
279.500000	-1.957071 
280.000000	-2.087984 
280.500000	-1.988815 
281.000000	-1.935849 
281.500000	-1.894977 
282.000000	-1.706906 
282.500000	-1.796073 
283.000000	-2.134214 
283.500000	-2.059256 
284.000000	-1.769758 
284.500000	-1.641463 
285.000000	-1.408071 
285.500000	-1.165991 
286.000000	-1.111785 
286.500000	-0.759135 
287.000000	-0.770419 
287.500000	-1.246465 
288.000000	-1.388242 
288.500000	-1.222693 
289.000000	-1.123969 
289.500000	-1.023465 
290.000000	-0.797128 
290.500000	-0.679010 
291.000000	-0.359073 
291.500000	-0.292437 
292.000000	-0.602479 
292.500000	-0.712415 
293.000000	-0.642139 
293.500000	-0.590001 
294.000000	-0.555329 
294.500000	-0.186906 
295.000000	0.563579  
295.500000	1.544388  
296.000000	2.409154  
296.500000	2.980843  
297.000000	3.563030  
297.500000	4.199429  
298.000000	4.730107  
298.500000	4.723250  
299.000000	4.713320  
299.500000	4.541358  
300.000000	4.445305  
300.500000	4.314659  
301.000000	4.097075  
301.500000	3.983438  
302.000000	4.154536  
302.500000	4.879994  
303.000000	5.475244  
303.500000	6.082686  
304.000000	6.236555  
304.500000	6.236508  
305.000000	5.902786  
305.500000	5.387341  
306.000000	4.617834  
306.500000	3.628600  
307.000000	3.299925  
307.500000	3.577219  
308.000000	4.392737  
308.500000	4.904199  
309.000000	5.674910  
309.500000	6.241668  
310.000000	6.932953  
310.500000	7.767631  
311.000000	8.248029  
311.500000	8.685230  
312.000000	9.404792  
312.500000	10.514973 
313.000000	11.467025 
313.500000	12.466863 
314.000000	12.988286 
314.500000	13.291061 
315.000000	13.586902 
315.500000	13.472237 
316.000000	12.996798 
316.500000	12.319553 
317.000000	11.841656 
317.500000	11.284759 
318.000000	11.114042 
318.500000	11.144107 
319.000000	11.256900 
319.500000	11.617337 
320.000000	11.959648 
320.500000	12.356143 
321.000000	12.401426 
321.500000	12.194539 
322.000000	11.634798 
322.500000	11.018987 
323.000000	10.391260 
323.500000	9.739674  
324.000000	9.314104  
324.500000	9.014984  
325.000000	9.034026  
325.500000	9.208264  
326.000000	9.503203  
326.500000	9.552197  
327.000000	9.424367  
327.500000	9.162536  
328.000000	8.705997  
328.500000	8.167580  
329.000000	7.608314  
329.500000	7.024587  
330.000000	6.393807  
330.500000	5.836061  
331.000000	5.254542  
331.500000	4.805137  
332.000000	4.389100  
332.500000	4.146684  
333.000000	4.093224  
333.500000	4.294221  
334.000000	4.512692  
334.500000	4.745144  
335.000000	5.084472  
335.500000	5.325148  
336.000000	5.423907  
336.500000	5.281587  
337.000000	5.137704  
337.500000	4.831635  
338.000000	4.574195  
338.500000	4.238914  
339.000000	3.889478  
339.500000	3.639686  
340.000000	3.488955  
340.500000	3.339017  
341.000000	3.244776  
341.500000	3.307468  
342.000000	3.370922  
342.500000	3.365711  
343.000000	3.254484  
343.500000	3.122604  
344.000000	2.956908  
344.500000	2.750416  
345.000000	2.279164  
345.500000	1.892025  
346.000000	1.543016  
346.500000	1.304609  
347.000000	1.089185  
347.500000	0.970855  
348.000000	1.100651  
348.500000	1.429053  
349.000000	1.823552  
349.500000	2.120002  
350.000000	2.526033  
350.500000	2.820166  
351.000000	3.127918  
351.500000	3.344305  
352.000000	3.401962  
352.500000	3.392712  
353.000000	3.410544  
353.500000	3.396216  
354.000000	3.276127  
354.500000	3.204340  
355.000000	3.154360  
355.500000	3.188932  
356.000000	3.247185  
356.500000	3.240559  
357.000000	3.128686  
357.500000	2.996571  
358.000000	2.883368  
358.500000	2.706832  
359.000000	2.443642  
359.500000	2.297160  
360.000000	2.161593  
360.500000	2.106723  
361.000000	2.097635  
361.500000	2.046031  
362.000000	2.042027  
362.500000	2.124311  
363.000000	2.195312  
363.500000	2.128457  
364.000000	2.211900  
364.500000	2.184032  
365.000000	2.213870  
365.500000	2.249443  
366.000000	2.229920  
366.500000	2.263367  
367.000000	2.416353  
367.500000	2.673337  
368.000000	2.819820  
368.500000	3.052097  
369.000000	3.080608  
369.500000	3.066068  
370.000000	2.987171  
370.500000	2.812888  
371.000000	2.568310  
371.500000	2.362610  
372.000000	2.379194  
372.500000	2.433063  
373.000000	2.537199  
373.500000	2.596937  
374.000000	2.703260  
374.500000	2.846271  
375.000000	2.956762  
375.500000	2.937590  
376.000000	2.913293  
376.500000	3.060521  
377.000000	3.248979  
377.500000	3.385557  
378.000000	3.447689  
378.500000	3.453589  
379.000000	3.499956  
379.500000	3.533868  
380.000000	3.459683  
380.500000	3.347006  
381.000000	3.326293  
381.500000	3.319703  
382.000000	3.281781  
382.500000	3.157794  
383.000000	2.948979  
383.500000	2.774983  
384.000000	2.666754  
384.500000	2.552912  
385.000000	2.481142  
385.500000	2.504071  
386.000000	2.578668  
386.500000	2.695977  
387.000000	2.784882  
387.500000	2.813322  
388.000000	2.814612  
388.500000	2.832106  
389.000000	2.851597  
389.500000	2.915488  
390.000000	3.020568  
390.500000	3.095504  
391.000000	3.194035  
391.500000	3.258679  
392.000000	3.262128  
392.500000	3.187309  
393.000000	3.062811  
393.500000	2.919929  
394.000000	2.814137  
394.500000	2.723531  
395.000000	2.597093  
395.500000	2.514910  
396.000000	2.500962  
396.500000	2.505133  
397.000000	2.570437  
397.500000	2.667503  
398.000000	2.799300  
398.500000	2.963722  
399.000000	3.126216  
399.500000	3.219935  
400.000000	3.213343  
400.500000	3.179356  
401.000000	3.088929  
401.500000	3.003366  
402.000000	2.927050  
402.500000	2.887851  
403.000000	2.895213  
403.500000	2.929002  
404.000000	2.997255  
404.500000	2.989685  
405.000000	2.968335  
405.500000	2.906853  
406.000000	2.820265  
406.500000	2.725565  
407.000000	2.642935  
407.500000	2.611710  
408.000000	2.603854  
408.500000	2.634837  
409.000000	2.619857  
409.500000	2.618284  
410.000000	2.658129  
410.500000	2.695817  
411.000000	2.735170  
411.500000	2.741643  
412.000000	2.776381  
412.500000	2.811279  
413.000000	2.812315  
413.500000	2.741504  
414.000000	2.642791  
414.500000	2.568283  
415.000000	2.498693  
415.500000	2.477022  
416.000000	2.452780  
416.500000	2.445458  
417.000000	2.458051  
417.500000	2.421650  
418.000000	2.346522  
418.500000	2.241706  
419.000000	2.135707  
419.500000	2.010103  
420.000000	1.940446  
420.500000	1.897024  
421.000000	1.879398  
421.500000	1.894733  
422.000000	1.887944  
422.500000	1.870032  
423.000000	1.850364  
423.500000	1.837245  
424.000000	1.803642  
424.500000	1.780860  
425.000000	1.765364  
425.500000	1.759437  
426.000000	1.773751  
426.500000	1.776599  
427.000000	1.764908  
427.500000	1.762934  
428.000000	1.778306  
428.500000	1.795007  
429.000000	1.800086  
429.500000	1.797299  
430.000000	1.794119  
430.500000	1.783331  
431.000000	1.768633  
431.500000	1.738634  
432.000000	1.697812  
432.500000	1.657556  
433.000000	1.633444  
433.500000	1.607147  
434.000000	1.590359  
434.500000	1.578894  
435.000000	1.568004  
435.500000	1.563122  
436.000000	1.568093  
436.500000	1.575262  
437.000000	1.566311  
437.500000	1.545935  
438.000000	1.525179  
438.500000	1.512233  
439.000000	1.504588  
439.500000	1.488286  
440.000000	1.459810  
440.500000	1.441848  
441.000000	1.436574  
441.500000	1.420516  
442.000000	1.382470  
442.500000	1.351881  
443.000000	1.341950  
443.500000	1.343171  
444.000000	1.346337  
444.500000	1.342745  

