PE FL                   SPECTRUM    ASCII       PEDS        1.60        
  -1
PM4A1F~1
23/10/10
10:40:39.00
23/10/10
10:40:39.00


444.500000
1









LS55
20.00
5.00
5.00
SCAN
1
20
100
100
0
500
0
2
0
1
7
ON
435 365 
1 0 0
#HDR
-1
-1
#GR
NM

0.00002384185791015625
0.0
300.000000
0.500000
290
8
4.144000
-0.953750
#DATA
300.000000	4.144000  
300.500000	2.624908  
301.000000	1.435200  
301.500000	0.566328  
302.000000	-0.069868 
302.500000	-0.560259 
303.000000	-0.747282 
303.500000	-0.631670 
304.000000	-0.211386 
304.500000	0.144081  
305.000000	0.172513  
305.500000	0.107078  
306.000000	0.027341  
306.500000	-0.136532 
307.000000	-0.303670 
307.500000	-0.635302 
308.000000	-0.919393 
308.500000	-0.953750 
309.000000	-0.671693 
309.500000	-0.592203 
310.000000	-0.544518 
310.500000	-0.578473 
311.000000	-0.765031 
311.500000	-0.757021 
312.000000	-0.856610 
312.500000	-0.865284 
313.000000	-0.710934 
313.500000	-0.125080 
314.000000	0.395697  
314.500000	0.969223  
315.000000	1.457639  
315.500000	1.603739  
316.000000	1.788917  
316.500000	1.819770  
317.000000	1.646923  
317.500000	1.470094  
318.000000	1.592688  
318.500000	1.723304  
319.000000	1.881450  
319.500000	2.067375  
320.000000	2.242652  
320.500000	2.514492  
321.000000	2.739938  
321.500000	2.655424  
322.000000	2.443684  
322.500000	2.273094  
323.000000	2.013388  
323.500000	1.657621  
324.000000	1.215160  
324.500000	0.920482  
325.000000	0.909807  
325.500000	1.019870  
326.000000	1.097917  
326.500000	1.319316  
327.000000	1.731694  
327.500000	2.040510  
328.000000	2.252475  
328.500000	2.316148  
329.000000	2.394077  
329.500000	2.595665  
330.000000	2.602021  
330.500000	2.463545  
331.000000	2.296799  
331.500000	2.260726  
332.000000	2.060280  
332.500000	1.773074  
333.000000	1.480801  
333.500000	1.186754  
334.000000	1.063501  
334.500000	0.980604  
335.000000	0.901763  
335.500000	0.786513  
336.000000	0.830462  
336.500000	0.836444  
337.000000	0.872654  
337.500000	0.955634  
338.000000	0.967783  
338.500000	1.027480  
339.000000	1.094319  
339.500000	1.259889  
340.000000	1.359603  
340.500000	1.396614  
341.000000	1.328071  
341.500000	1.272642  
342.000000	1.332073  
342.500000	1.301102  
343.000000	1.228882  
343.500000	1.105157  
344.000000	1.064021  
344.500000	1.076669  
345.000000	1.141537  
345.500000	1.181784  
346.000000	1.154057  
346.500000	1.284256  
347.000000	1.470227  
347.500000	1.636505  
348.000000	1.721528  
348.500000	1.784574  
349.000000	1.823618  
349.500000	1.951347  
350.000000	2.022273  
350.500000	1.945804  
351.000000	1.850602  
351.500000	1.841535  
352.000000	1.764098  
352.500000	1.665440  
353.000000	1.453464  
353.500000	1.130250  
354.000000	0.929213  
354.500000	0.822069  
355.000000	0.760823  
355.500000	0.633642  
356.000000	0.685281  
356.500000	0.716577  
357.000000	0.794976  
357.500000	0.790374  
358.000000	0.672797  
358.500000	0.570575  
359.000000	0.574599  
359.500000	0.631780  
360.000000	0.623185  
360.500000	0.704628  
361.000000	0.785478  
361.500000	1.006113  
362.000000	1.172121  
362.500000	1.303116  
363.000000	1.306323  
363.500000	1.357153  
364.000000	1.398097  
364.500000	1.388379  
365.000000	1.396222  
365.500000	1.358241  
366.000000	1.406875  
366.500000	1.354231  
367.000000	1.327891  
367.500000	1.235043  
368.000000	1.165499  
368.500000	1.127092  
369.000000	1.076432  
369.500000	1.029409  
370.000000	1.017729  
370.500000	1.109423  
371.000000	1.213075  
371.500000	1.353006  
372.000000	1.517676  
372.500000	1.618951  
373.000000	1.697730  
373.500000	1.604936  
374.000000	1.437040  
374.500000	1.205174  
375.000000	1.008199  
375.500000	0.916485  
376.000000	0.854920  
376.500000	0.912387  
377.000000	0.967609  
377.500000	1.040817  
378.000000	1.078542  
378.500000	1.035243  
379.000000	0.881743  
379.500000	0.724582  
380.000000	0.607820  
380.500000	0.532042  
381.000000	0.537556  
381.500000	0.639677  
382.000000	0.805978  
382.500000	0.996753  
383.000000	1.171900  
383.500000	1.228329  
384.000000	1.268952  
384.500000	1.305220  
385.000000	1.347263  
385.500000	1.308187  
386.000000	1.274928  
386.500000	1.238409  
387.000000	1.221394  
387.500000	1.223975  
388.000000	1.191117  
388.500000	1.186951  
389.000000	1.216060  
389.500000	1.260369  
390.000000	1.252478  
390.500000	1.183252  
391.000000	1.099331  
391.500000	1.016738  
392.000000	0.958864  
392.500000	0.949089  
393.000000	1.014032  
393.500000	1.110628  
394.000000	1.213913  
394.500000	1.334214  
395.000000	1.416221  
395.500000	1.426319  
396.000000	1.416924  
396.500000	1.336692  
397.000000	1.219295  
397.500000	1.146820  
398.000000	1.081270  
398.500000	0.999901  
399.000000	0.924713  
399.500000	0.836418  
400.000000	0.716572  
400.500000	0.627974  
401.000000	0.555925  
401.500000	0.523616  
402.000000	0.578748  
402.500000	0.693095  
403.000000	0.844547  
403.500000	0.985889  
404.000000	1.108944  
404.500000	1.199818  
405.000000	1.252423  
405.500000	1.278874  
406.000000	1.243321  
406.500000	1.168064  
407.000000	1.096782  
407.500000	1.077812  
408.000000	1.041695  
408.500000	0.984232  
409.000000	0.941627  
409.500000	0.917017  
410.000000	0.899517  
410.500000	0.884556  
411.000000	0.856760  
411.500000	0.830483  
412.000000	0.876748  
412.500000	0.936477  
413.000000	0.977859  
413.500000	0.991063  
414.000000	1.019421  
414.500000	1.048743  
415.000000	1.099590  
415.500000	1.114618  
416.000000	1.090265  
416.500000	1.093355  
417.000000	1.124865  
417.500000	1.139759  
418.000000	1.121685  
418.500000	1.073352  
419.000000	0.969150  
419.500000	0.872553  
420.000000	0.749622  
420.500000	0.620023  
421.000000	0.509204  
421.500000	0.459401  
422.000000	0.444941  
422.500000	0.480744  
423.000000	0.543229  
423.500000	0.602030  
424.000000	0.680550  
424.500000	0.735649  
425.000000	0.782453  
425.500000	0.785461  
426.000000	0.781316  
426.500000	0.751770  
427.000000	0.760578  
427.500000	0.809254  
428.000000	0.861062  
428.500000	0.927178  
429.000000	0.991445  
429.500000	1.070359  
430.000000	1.126822  
430.500000	1.159686  
431.000000	1.140844  
431.500000	1.109630  
432.000000	1.064314  
432.500000	1.001783  
433.000000	0.928768  
433.500000	0.850779  
434.000000	0.798150  
434.500000	0.761949  
435.000000	0.769567  
435.500000	0.796356  
436.000000	0.859927  
436.500000	0.928076  
437.000000	0.989799  
437.500000	1.019725  
438.000000	1.009380  
438.500000	0.963625  
439.000000	0.889818  
439.500000	0.820174  
440.000000	0.770317  
440.500000	0.764660  
441.000000	0.786873  
441.500000	0.851990  
442.000000	0.908062  
442.500000	0.948640  
443.000000	0.972395  
443.500000	0.961325  
444.000000	0.931487  
444.500000	0.891142  

