PE FL                   SPECTRUM    ASCII       PEDS        1.60        
  -1
PMB137~1
23/10/10
10:38:57.00
23/10/10
10:38:57.00


444.500000
1









LS55
5.00
5.00
5.00
SCAN
1
20
100
100
0
500
0
2
0
1
7
ON
435 365 
1 0 0
#HDR
-1
-1
#GR
NM

0.00002384185791015625
0.0
300.000000
0.500000
290
8
60.333293
0.204367
#DATA
300.000000	11.090000 
300.500000	7.514282  
301.000000	4.951713  
301.500000	2.818336  
302.000000	1.276265  
302.500000	0.528346  
303.000000	0.204367  
303.500000	0.335977  
304.000000	0.739573  
304.500000	0.855866  
305.000000	0.648135  
305.500000	0.983138  
306.000000	1.171586  
306.500000	1.325078  
307.000000	1.445174  
307.500000	1.441244  
308.000000	1.617394  
308.500000	1.806828  
309.000000	2.202054  
309.500000	2.662146  
310.000000	3.537618  
310.500000	4.541085  
311.000000	5.396862  
311.500000	5.754327  
312.000000	5.741102  
312.500000	5.538016  
313.000000	4.970944  
313.500000	4.277301  
314.000000	3.589531  
314.500000	3.059926  
315.000000	3.241553  
315.500000	4.091732  
316.000000	4.978567  
316.500000	5.982578  
317.000000	7.180301  
317.500000	8.394418  
318.000000	9.147153  
318.500000	9.616864  
319.000000	9.429816  
319.500000	9.203058  
320.000000	8.961822  
320.500000	8.562369  
321.000000	8.204452  
321.500000	8.186314  
322.000000	8.496262  
322.500000	8.968200  
323.000000	9.706373  
323.500000	10.332380 
324.000000	11.110484 
324.500000	11.953421 
325.000000	12.620380 
325.500000	13.094754 
326.000000	13.511852 
326.500000	13.827282 
327.000000	13.830686 
327.500000	13.524835 
328.000000	13.056450 
328.500000	12.603116 
329.000000	12.298172 
329.500000	12.010424 
330.000000	11.963277 
330.500000	12.273947 
331.000000	12.810222 
331.500000	13.510692 
332.000000	14.028309 
332.500000	14.307039 
333.000000	14.444393 
333.500000	14.524653 
334.000000	14.431341 
334.500000	14.214141 
335.000000	13.823460 
335.500000	13.523972 
336.000000	13.641336 
336.500000	13.980000 
337.000000	14.639494 
337.500000	15.556942 
338.000000	16.681326 
338.500000	18.094320 
339.000000	19.648271 
339.500000	20.881061 
340.000000	21.621198 
340.500000	22.081195 
341.000000	22.158381 
341.500000	21.877170 
342.000000	21.328442 
342.500000	20.433876 
343.000000	19.582313 
343.500000	19.112213 
344.000000	18.845070 
344.500000	18.918766 
345.000000	19.517880 
345.500000	20.503294 
346.000000	21.717073 
346.500000	23.114561 
347.000000	24.368800 
347.500000	25.385081 
348.000000	26.126603 
348.500000	26.477322 
349.000000	26.781107 
349.500000	27.240999 
350.000000	27.694859 
350.500000	28.132153 
351.000000	28.748909 
351.500000	29.479198 
352.000000	30.622495 
352.500000	31.753962 
353.000000	32.752525 
353.500000	33.767098 
354.000000	34.938983 
354.500000	35.989879 
355.000000	37.497342 
355.500000	39.458282 
356.000000	41.555196 
356.500000	44.249002 
357.000000	46.697858 
357.500000	49.048854 
358.000000	51.238800 
358.500000	53.009974 
359.000000	53.942587 
359.500000	54.439295 
360.000000	54.728032 
360.500000	54.730566 
361.000000	54.987805 
361.500000	55.057954 
362.000000	55.256005 
362.500000	55.673598 
363.000000	56.142894 
363.500000	56.553791 
364.000000	57.117396 
364.500000	57.746418 
365.000000	58.324452 
365.500000	58.705510 
366.000000	58.603944 
366.500000	57.998983 
367.000000	57.044406 
367.500000	55.633699 
368.000000	54.138084 
368.500000	52.924547 
369.000000	52.031474 
369.500000	51.796350 
370.000000	51.897967 
370.500000	52.471291 
371.000000	53.152575 
371.500000	53.846440 
372.000000	54.303682 
372.500000	54.269294 
373.000000	54.045833 
373.500000	53.552616 
374.000000	53.235000 
374.500000	52.859772 
375.000000	53.015828 
375.500000	53.506297 
376.000000	54.258049 
376.500000	55.190924 
377.000000	56.165608 
377.500000	57.149685 
378.000000	57.849046 
378.500000	58.218878 
379.000000	57.780293 
379.500000	57.031422 
380.000000	56.252713 
380.500000	55.671956 
381.000000	55.233271 
381.500000	54.870135 
382.000000	54.782996 
382.500000	54.888813 
383.000000	55.125224 
383.500000	54.911989 
384.000000	54.182018 
384.500000	52.760032 
385.000000	51.297067 
385.500000	49.779474 
386.000000	48.201420 
386.500000	46.760924 
387.000000	45.393662 
387.500000	44.177861 
388.000000	42.958808 
388.500000	41.735093 
389.000000	39.900597 
389.500000	37.899967 
390.000000	35.792473 
390.500000	33.670192 
391.000000	31.568124 
391.500000	29.416388 
392.000000	27.441349 
392.500000	25.617607 
393.000000	24.297746 
393.500000	23.217772 
394.000000	22.465877 
394.500000	21.890531 
395.000000	21.735106 
395.500000	21.725443 
396.000000	21.767408 
396.500000	21.914391 
397.000000	21.978423 
397.500000	21.868181 
398.000000	21.588463 
398.500000	21.245801 
399.000000	20.599296 
399.500000	19.894583 
400.000000	19.035472 
400.500000	18.052063 
401.000000	17.175606 
401.500000	16.481936 
402.000000	15.930599 
402.500000	15.591799 
403.000000	15.472248 
403.500000	15.409910 
404.000000	15.360160 
404.500000	15.267806 
405.000000	15.065619 
405.500000	14.833595 
406.000000	14.467960 
406.500000	13.962376 
407.000000	13.444256 
407.500000	12.922059 
408.000000	12.441656 
408.500000	11.975148 
409.000000	11.645078 
409.500000	11.434258 
410.000000	11.404116 
410.500000	11.390378 
411.000000	11.425889 
411.500000	11.467802 
412.000000	11.420973 
412.500000	11.459111 
413.000000	11.519417 
413.500000	11.545294 
414.000000	11.567474 
414.500000	11.686154 
415.000000	11.769387 
415.500000	11.895674 
416.000000	11.981353 
416.500000	11.946499 
417.000000	12.005041 
417.500000	12.295092 
418.000000	12.698665 
418.500000	13.161991 
419.000000	13.679279 
419.500000	14.154334 
420.000000	14.663756 
420.500000	15.230541 
421.000000	15.694606 
421.500000	16.037970 
422.000000	16.505067 
422.500000	17.050645 
423.000000	17.674017 
423.500000	18.253542 
424.000000	18.706423 
424.500000	19.095783 
425.000000	19.621949 
425.500000	20.187159 
426.000000	20.517391 
426.500000	20.733006 
427.000000	20.955713 
427.500000	21.292016 
428.000000	21.664595 
428.500000	21.957899 
429.000000	22.232061 
429.500000	22.709214 
430.000000	23.468576 
430.500000	24.420822 
431.000000	25.525079 
431.500000	26.910121 
432.000000	28.535910 
432.500000	30.672026 
433.000000	33.120882 
433.500000	35.660405 
434.000000	38.231428 
434.500000	40.841981 
435.000000	43.142499 
435.500000	45.020774 
436.000000	46.386883 
436.500000	47.043045 
437.000000	47.471888 
437.500000	47.655674 
438.000000	47.656690 
438.500000	47.463433 
439.000000	47.495423 
439.500000	47.691966 
440.000000	48.365069 
440.500000	49.302513 
441.000000	50.397957 
441.500000	51.904704 
442.000000	53.537421 
442.500000	55.252346 
443.000000	56.792672 
443.500000	58.233075 
444.000000	59.339311 
444.500000	60.333293 

