PE FL                   SPECTRUM    ASCII       PEDS        1.60        
  -1
PM0F57~1
23/10/10
11:08:15.00
23/10/10
11:08:15.00


444.500000
1









LS55
5.00
5.00
5.00
SCAN
1
20
100
100
0
500
0
2
0
1
7
ON
500 450 
1 0 0
#HDR
-1
-1
#GR
NM

0.00002384185791015625
0.0
300.000000
0.500000
290
8
55.360923
-4.144000
#DATA
300.000000	-4.144000 
300.500000	-1.989654 
301.000000	-0.167085 
301.500000	1.189120  
302.000000	1.808248  
302.500000	1.522040  
303.000000	0.993767  
303.500000	0.632032  
304.000000	0.473097  
304.500000	0.544789  
305.000000	0.758688  
305.500000	1.012171  
306.000000	1.452286  
306.500000	1.729267  
307.000000	1.523207  
307.500000	0.931762  
308.000000	0.333685  
308.500000	-0.135390 
309.000000	-0.501756 
309.500000	-0.967279 
310.000000	-1.320519 
310.500000	-1.330389 
311.000000	-1.174387 
311.500000	-0.944971 
312.000000	-0.769976 
312.500000	-0.559701 
313.000000	-0.419472 
313.500000	-0.258018 
314.000000	-0.324915 
314.500000	-0.503463 
315.000000	-0.539723 
315.500000	-0.681517 
316.000000	-0.878790 
316.500000	-0.924299 
317.000000	-0.876813 
317.500000	-0.821941 
318.000000	-0.646842 
318.500000	-0.421581 
319.000000	-0.341061 
319.500000	0.023033  
320.000000	0.193957  
320.500000	0.289953  
321.000000	0.506543  
321.500000	0.939740  
322.000000	1.614669  
322.500000	2.336422  
323.000000	3.210176  
323.500000	3.981806  
324.000000	5.175907  
324.500000	6.359589  
325.000000	7.554519  
325.500000	8.664407  
326.000000	9.713780  
326.500000	10.895190 
327.000000	11.825494 
327.500000	12.557059 
328.000000	13.097507 
328.500000	13.843434 
329.000000	14.593421 
329.500000	15.421405 
330.000000	16.268892 
330.500000	17.184799 
331.000000	18.589976 
331.500000	20.050837 
332.000000	21.577334 
332.500000	23.186546 
333.000000	24.888438 
333.500000	26.490186 
334.000000	27.932206 
334.500000	29.060040 
335.000000	30.012657 
335.500000	30.988535 
336.000000	31.773057 
336.500000	32.647583 
337.000000	33.477972 
337.500000	34.423418 
338.000000	35.297208 
338.500000	35.965607 
339.000000	36.268264 
339.500000	36.252905 
340.000000	35.688446 
340.500000	34.587994 
341.000000	33.439007 
341.500000	32.134721 
342.000000	31.089347 
342.500000	30.354801 
343.000000	29.747805 
343.500000	29.243135 
344.000000	29.072559 
344.500000	28.846020 
345.000000	28.689519 
345.500000	28.627633 
346.000000	28.303226 
346.500000	27.959697 
347.000000	27.764238 
347.500000	27.600937 
348.000000	27.552610 
348.500000	27.673665 
349.000000	27.787748 
349.500000	27.991762 
350.000000	28.451444 
350.500000	28.865654 
351.000000	29.127500 
351.500000	29.355375 
352.000000	29.518801 
352.500000	29.984613 
353.000000	30.541012 
353.500000	31.003549 
354.000000	31.507999 
354.500000	32.601726 
355.000000	34.154068 
355.500000	36.007594 
356.000000	38.074005 
356.500000	40.089757 
357.000000	42.225346 
357.500000	44.264612 
358.000000	46.042007 
358.500000	47.210752 
359.000000	48.143350 
359.500000	48.711034 
360.000000	49.143181 
360.500000	49.742376 
361.000000	50.343058 
361.500000	51.052183 
362.000000	51.901239 
362.500000	52.802635 
363.000000	53.589082 
363.500000	54.179013 
364.000000	54.245451 
364.500000	53.919533 
365.000000	53.261360 
365.500000	52.636373 
366.000000	51.861757 
366.500000	50.909125 
367.000000	50.053893 
367.500000	49.286248 
368.000000	48.630830 
368.500000	47.981000 
369.000000	47.324159 
369.500000	46.605563 
370.000000	46.151459 
370.500000	45.782231 
371.000000	45.423626 
371.500000	45.398277 
372.000000	45.600182 
372.500000	45.932199 
373.000000	46.479300 
373.500000	46.948007 
374.000000	47.392178 
374.500000	48.083789 
375.000000	48.871179 
375.500000	49.420949 
376.000000	49.958558 
376.500000	50.471005 
377.000000	50.831693 
377.500000	51.249716 
378.000000	51.213923 
378.500000	51.001562 
379.000000	50.751387 
379.500000	50.478070 
380.000000	50.102437 
380.500000	49.858851 
381.000000	49.851068 
381.500000	49.795314 
382.000000	49.952251 
382.500000	49.827311 
383.000000	49.563248 
383.500000	49.076758 
384.000000	48.329586 
384.500000	47.268025 
385.000000	46.104974 
385.500000	45.158708 
386.000000	44.184909 
386.500000	43.215189 
387.000000	41.912311 
387.500000	40.610218 
388.000000	39.400095 
388.500000	38.162324 
389.000000	36.563849 
389.500000	34.654446 
390.000000	32.788048 
390.500000	31.023039 
391.000000	29.244009 
391.500000	27.196830 
392.000000	25.171057 
392.500000	23.458726 
393.000000	22.223037 
393.500000	21.420567 
394.000000	20.842180 
394.500000	20.497567 
395.000000	20.521390 
395.500000	20.602084 
396.000000	20.580738 
396.500000	20.368133 
397.000000	20.111872 
397.500000	19.730381 
398.000000	19.265724 
398.500000	18.820332 
399.000000	18.175747 
399.500000	17.466964 
400.000000	16.642691 
400.500000	15.815008 
401.000000	15.009181 
401.500000	14.434532 
402.000000	14.054059 
402.500000	13.757338 
403.000000	13.710208 
403.500000	13.719266 
404.000000	13.699227 
404.500000	13.554758 
405.000000	13.315409 
405.500000	12.953959 
406.000000	12.515428 
406.500000	12.041533 
407.000000	11.475588 
407.500000	10.953061 
408.000000	10.552240 
408.500000	10.230981 
409.000000	9.963602  
409.500000	9.813979  
410.000000	9.849774  
410.500000	9.965756  
411.000000	10.101630 
411.500000	10.224862 
412.000000	10.236591 
412.500000	10.210248 
413.000000	10.249217 
413.500000	10.229163 
414.000000	10.160867 
414.500000	10.223066 
415.000000	10.426190 
415.500000	10.624583 
416.000000	10.896600 
416.500000	11.106697 
417.000000	11.245201 
417.500000	11.474510 
418.000000	11.778735 
418.500000	12.045846 
419.000000	12.314765 
419.500000	12.679366 
420.000000	13.073157 
420.500000	13.571743 
421.000000	14.033315 
421.500000	14.385179 
422.000000	14.707342 
422.500000	14.963175 
423.000000	15.235882 
423.500000	15.437399 
424.000000	15.655049 
424.500000	15.857732 
425.000000	16.260599 
425.500000	16.787027 
426.000000	17.399176 
426.500000	17.980925 
427.000000	18.433733 
427.500000	18.971066 
428.000000	19.422705 
428.500000	19.784323 
429.000000	20.015392 
429.500000	20.358166 
430.000000	20.794534 
430.500000	21.568160 
431.000000	22.629319 
431.500000	23.794009 
432.000000	25.310181 
432.500000	27.298443 
433.000000	29.583568 
433.500000	31.922245 
434.000000	34.297566 
434.500000	36.445626 
435.000000	38.440961 
435.500000	40.221791 
436.000000	41.408736 
436.500000	42.054536 
437.000000	42.497541 
437.500000	42.668286 
438.000000	42.680105 
438.500000	42.599839 
439.000000	42.427690 
439.500000	42.315343 
440.000000	42.937281 
440.500000	43.860454 
441.000000	45.035270 
441.500000	46.633685 
442.000000	48.429073 
442.500000	50.427235 
443.000000	52.361303 
443.500000	53.891156 
444.000000	54.619805 
444.500000	55.360923 

