PE FL                   SPECTRUM    ASCII       PEDS        1.60        
  -1
PPE7A2~1
23/10/10
14:40:48.00
23/10/10
14:40:48.00


444.500000
1









LS55
5.00
5.00
5.00
SCAN
1
20
100
100
0
500
0
2
0
1
7
ON
500 450 
1 0 0
#HDR
-1
-1
#GR
NM

0.00002384185791015625
0.0
250.000000
0.500000
390
8
55.539415
-3.961939
#DATA
250.000000	4.182999  
250.500000	3.132837  
251.000000	1.926320  
251.500000	1.181373  
252.000000	1.356930  
252.500000	1.801366  
253.000000	2.260592  
253.500000	1.882129  
254.000000	1.093625  
254.500000	0.431550  
255.000000	-0.548709 
255.500000	-1.759389 
256.000000	-2.493753 
256.500000	-2.646515 
257.000000	-2.238838 
257.500000	-1.490447 
258.000000	-1.063747 
258.500000	-0.833366 
259.000000	-0.504156 
259.500000	-0.680083 
260.000000	-1.205025 
260.500000	-1.855985 
261.000000	-2.560880 
261.500000	-3.052584 
262.000000	-3.710321 
262.500000	-3.961939 
263.000000	-3.788504 
263.500000	-3.152046 
264.000000	-2.801681 
264.500000	-2.257580 
265.000000	-1.627359 
265.500000	-0.985759 
266.000000	-0.215420 
266.500000	-0.011565 
267.000000	0.399101  
267.500000	1.069672  
268.000000	1.919974  
268.500000	2.110566  
269.000000	1.867572  
269.500000	1.123920  
270.000000	0.407164  
270.500000	-0.131733 
271.000000	-0.933595 
271.500000	-1.404795 
272.000000	-1.153572 
272.500000	-0.307722 
273.000000	0.781110  
273.500000	1.611679  
274.000000	1.669470  
274.500000	1.518333  
275.000000	1.112638  
275.500000	0.434892  
276.000000	-0.478341 
276.500000	-1.128954 
277.000000	-1.584610 
277.500000	-1.255410 
278.000000	-0.673603 
278.500000	-0.451643 
279.000000	-0.039673 
279.500000	0.645510  
280.000000	1.421415  
280.500000	1.919106  
281.000000	2.174217  
281.500000	2.187073  
282.000000	2.482051  
282.500000	2.547681  
283.000000	2.193665  
283.500000	1.589756  
284.000000	1.177406  
284.500000	0.923762  
285.000000	0.405469  
285.500000	-0.378130 
286.000000	-1.098768 
286.500000	-1.443192 
287.000000	-1.484563 
287.500000	-1.273433 
288.000000	-0.837875 
288.500000	0.109809  
289.000000	1.441738  
289.500000	2.040312  
290.000000	2.346724  
290.500000	2.435782  
291.000000	2.152401  
291.500000	1.671639  
292.000000	1.242202  
292.500000	0.710609  
293.000000	0.441234  
293.500000	0.734927  
294.000000	0.494250  
294.500000	0.587305  
295.000000	0.938924  
295.500000	1.151636  
296.000000	1.372032  
296.500000	1.820751  
297.000000	2.112405  
297.500000	2.270954  
298.000000	2.458598  
298.500000	2.041636  
299.000000	1.725395  
299.500000	1.200123  
300.000000	0.516753  
300.500000	-0.316682 
301.000000	-0.725152 
301.500000	-0.865239 
302.000000	-0.750482 
302.500000	-0.367700 
303.000000	0.252039  
303.500000	1.272269  
304.000000	2.114711  
304.500000	2.545153  
305.000000	2.564045  
305.500000	2.191045  
306.000000	1.445549  
306.500000	0.599050  
307.000000	0.067683  
307.500000	-0.390125 
308.000000	-0.339694 
308.500000	0.185280  
309.000000	1.005084  
309.500000	2.062966  
310.000000	3.025120  
310.500000	3.550526  
311.000000	3.802101  
311.500000	4.195429  
312.000000	4.366018  
312.500000	4.209343  
313.000000	4.064513  
313.500000	4.009592  
314.000000	4.352235  
314.500000	5.089280  
315.000000	5.554961  
315.500000	5.917968  
316.000000	6.570349  
316.500000	7.285362  
317.000000	7.628934  
317.500000	7.693070  
318.000000	7.637176  
318.500000	7.624302  
319.000000	7.888614  
319.500000	8.146718  
320.000000	8.309478  
320.500000	8.434885  
321.000000	8.763271  
321.500000	8.978499  
322.000000	9.041046  
322.500000	8.996564  
323.000000	8.903081  
323.500000	8.816167  
324.000000	8.778276  
324.500000	8.862780  
325.000000	8.908165  
325.500000	9.024937  
326.000000	9.102865  
326.500000	9.326349  
327.000000	9.827855  
327.500000	10.505486 
328.000000	11.082357 
328.500000	11.620517 
329.000000	12.317458 
329.500000	12.976703 
330.000000	13.353542 
330.500000	13.325503 
331.000000	13.214812 
331.500000	13.057648 
332.000000	12.794615 
332.500000	12.534765 
333.000000	12.163665 
333.500000	11.970906 
334.000000	12.211461 
334.500000	12.355943 
335.000000	12.419293 
335.500000	12.639760 
336.000000	13.062102 
336.500000	13.690326 
337.000000	14.570154 
337.500000	15.774978 
338.000000	16.865245 
338.500000	18.161517 
339.000000	19.014300 
339.500000	19.374254 
340.000000	19.338911 
340.500000	18.943017 
341.000000	18.313435 
341.500000	17.482604 
342.000000	17.032043 
342.500000	16.675922 
343.000000	16.579380 
343.500000	16.518816 
344.000000	16.533660 
344.500000	16.534059 
345.000000	16.812564 
345.500000	17.210726 
346.000000	17.340012 
346.500000	17.794064 
347.000000	18.417004 
347.500000	19.154693 
348.000000	20.102191 
348.500000	20.958692 
349.000000	21.550959 
349.500000	22.495667 
350.000000	23.650695 
350.500000	24.625075 
351.000000	25.531419 
351.500000	26.415370 
352.000000	27.093790 
352.500000	27.980271 
353.000000	28.884289 
353.500000	29.416585 
354.000000	30.030401 
354.500000	31.162925 
355.000000	32.616833 
355.500000	34.459039 
356.000000	36.624498 
356.500000	38.741200 
357.000000	41.046290 
357.500000	43.491198 
358.000000	45.539170 
358.500000	46.792315 
359.000000	47.599660 
359.500000	47.908775 
360.000000	48.154520 
360.500000	48.533282 
361.000000	48.973351 
361.500000	49.490350 
362.000000	50.527590 
362.500000	51.732090 
363.000000	52.752756 
363.500000	53.682767 
364.000000	54.156958 
364.500000	54.070930 
365.000000	53.434498 
365.500000	52.648405 
366.000000	51.513131 
366.500000	50.291456 
367.000000	49.205254 
367.500000	48.194725 
368.000000	47.579227 
368.500000	47.439638 
369.000000	47.251094 
369.500000	46.982146 
370.000000	47.007514 
370.500000	46.946608 
371.000000	46.785911 
371.500000	46.702202 
372.000000	46.353410 
372.500000	45.933780 
373.000000	45.814356 
373.500000	45.779410 
374.000000	45.856125 
374.500000	46.261785 
375.000000	47.010009 
375.500000	48.054380 
376.000000	49.605219 
376.500000	51.270980 
377.000000	52.779292 
377.500000	54.026069 
378.000000	54.919851 
378.500000	55.539415 
379.000000	55.534638 
379.500000	54.821948 
380.000000	53.863882 
380.500000	52.913899 
381.000000	52.041251 
381.500000	51.058206 
382.000000	49.990075 
382.500000	49.118636 
383.000000	48.641257 
383.500000	48.211875 
384.000000	47.596205 
384.500000	46.760577 
385.000000	45.870545 
385.500000	45.096842 
386.000000	44.366006 
386.500000	43.557951 
387.000000	42.650933 
387.500000	41.748776 
388.000000	40.982738 
388.500000	40.258727 
389.000000	39.208945 
389.500000	37.732877 
390.000000	36.179183 
390.500000	34.668744 
391.000000	33.103346 
391.500000	31.622199 
392.000000	30.084964 
392.500000	28.775431 
393.000000	27.988940 
393.500000	27.587291 
394.000000	27.210209 
394.500000	26.982235 
395.000000	27.052017 
395.500000	27.106546 
396.000000	27.148827 
396.500000	26.920369 
397.000000	26.467385 
397.500000	25.774067 
398.000000	24.906328 
398.500000	23.798626 
399.000000	22.603366 
399.500000	21.536199 
400.000000	20.504004 
400.500000	19.664943 
401.000000	18.952927 
401.500000	18.419173 
402.000000	18.059835 
402.500000	17.694147 
403.000000	17.364953 
403.500000	16.945586 
404.000000	16.528851 
404.500000	15.998667 
405.000000	15.401011 
405.500000	14.743296 
406.000000	14.011422 
406.500000	13.397139 
407.000000	12.741052 
407.500000	12.108497 
408.000000	11.508028 
408.500000	11.004849 
409.000000	10.579473 
409.500000	10.208179 
410.000000	9.986906  
410.500000	9.760587  
411.000000	9.689494  
411.500000	9.712803  
412.000000	9.745237  
412.500000	9.789407  
413.000000	9.929067  
413.500000	10.090532 
414.000000	10.163236 
414.500000	10.311331 
415.000000	10.448905 
415.500000	10.610134 
416.000000	10.892630 
416.500000	11.133901 
417.000000	11.361095 
417.500000	11.657367 
418.000000	11.978322 
418.500000	12.204002 
419.000000	12.374091 
419.500000	12.575265 
420.000000	12.765764 
420.500000	13.094292 
421.000000	13.397931 
421.500000	13.665246 
422.000000	14.035233 
422.500000	14.469440 
423.000000	14.946444 
423.500000	15.317681 
424.000000	15.634188 
424.500000	15.954128 
425.000000	16.452266 
425.500000	16.998629 
426.000000	17.505317 
426.500000	17.990843 
427.000000	18.404267 
427.500000	18.893589 
428.000000	19.308506 
428.500000	19.554661 
429.000000	19.761522 
429.500000	20.048585 
430.000000	20.469882 
430.500000	21.192895 
431.000000	22.234349 
431.500000	23.462518 
432.000000	24.985202 
432.500000	26.989544 
433.000000	29.139314 
433.500000	31.402455 
434.000000	33.618423 
434.500000	35.623190 
435.000000	37.533738 
435.500000	39.342962 
436.000000	40.717611 
436.500000	41.566929 
437.000000	42.276311 
437.500000	42.653779 
438.000000	42.839313 
438.500000	42.789308 
439.000000	42.524275 
439.500000	42.387012 
440.000000	42.706818 
440.500000	43.311257 
441.000000	44.083165 
441.500000	45.282956 
442.000000	46.549792 
442.500000	47.990834 
443.000000	49.423307 
443.500000	50.520293 
444.000000	51.277881 
444.500000	51.905066 

