PE FL                   SPECTRUM    ASCII       PEDS        1.60        
  -1
PMDF71~1
23/10/12
12:34:25.00
23/10/12
12:34:25.00


444.500000
1









LS55
35.00
5.00
5.00
SCAN
1
20
100
500
0
500
0
2
0
1
7
ON
500 450 
1 0 0
#HDR
-1
-1
#GR
NM

0.00002384185791015625
0.0
250.000000
0.500000
390
8
25.840804
-4.905944
#DATA
250.000000	0.697000  
250.500000	-0.921538 
251.000000	-2.358304 
251.500000	-3.543652 
252.000000	-4.477839 
252.500000	-4.771283 
253.000000	-4.349282 
253.500000	-3.494981 
254.000000	-2.638765 
254.500000	-1.897466 
255.000000	-1.192606 
255.500000	-0.679754 
256.000000	-0.568887 
256.500000	-1.168191 
257.000000	-1.823642 
257.500000	-2.228129 
258.000000	-2.349647 
258.500000	-2.521418 
259.000000	-2.577968 
259.500000	-2.335928 
260.000000	-1.955776 
260.500000	-1.439818 
261.000000	-1.467742 
261.500000	-1.632923 
262.000000	-1.724936 
262.500000	-1.714497 
263.000000	-2.159572 
263.500000	-2.817265 
264.000000	-3.114897 
264.500000	-3.308948 
265.000000	-3.081428 
265.500000	-2.444373 
266.000000	-1.498356 
266.500000	-0.119710 
267.000000	1.557331  
267.500000	2.475766  
268.000000	2.561001  
268.500000	2.130346  
269.000000	1.330346  
269.500000	0.153744  
270.000000	-1.031159 
270.500000	-2.099124 
271.000000	-2.737024 
271.500000	-2.783079 
272.000000	-2.755244 
272.500000	-2.935627 
273.000000	-3.374456 
273.500000	-3.679408 
274.000000	-4.112132 
274.500000	-4.453710 
275.000000	-4.714551 
275.500000	-4.905944 
276.000000	-4.856590 
276.500000	-4.523814 
277.000000	-3.979228 
277.500000	-3.708147 
278.000000	-3.378862 
278.500000	-3.097536 
279.000000	-2.895371 
279.500000	-2.741822 
280.000000	-2.930287 
280.500000	-3.382812 
281.000000	-3.815707 
281.500000	-4.146328 
282.000000	-4.504485 
282.500000	-4.570730 
283.000000	-4.431104 
283.500000	-4.037208 
284.000000	-3.386359 
284.500000	-2.810654 
285.000000	-2.503342 
285.500000	-2.364900 
286.000000	-2.565913 
286.500000	-2.946478 
287.000000	-3.380922 
287.500000	-3.835653 
288.000000	-4.060144 
288.500000	-4.038985 
289.000000	-3.775454 
289.500000	-3.403162 
290.000000	-2.947045 
290.500000	-2.751273 
291.000000	-2.754303 
291.500000	-3.063683 
292.000000	-3.461851 
292.500000	-3.989303 
293.000000	-4.361273 
293.500000	-4.489317 
294.000000	-4.247797 
294.500000	-3.534159 
295.000000	-2.454279 
295.500000	-1.124077 
296.000000	0.039505  
296.500000	1.188574  
297.000000	1.934369  
297.500000	2.302431  
298.000000	2.145318  
298.500000	1.732089  
299.000000	1.000922  
299.500000	0.520096  
300.000000	0.217861  
300.500000	0.318417  
301.000000	1.047125  
301.500000	2.414760  
302.000000	4.354545  
302.500000	6.558286  
303.000000	9.018805  
303.500000	11.004007 
304.000000	12.604133 
304.500000	13.613591 
305.000000	14.306799 
305.500000	14.616851 
306.000000	14.875825 
306.500000	14.988930 
307.000000	15.198880 
307.500000	15.700721 
308.000000	16.239117 
308.500000	16.769848 
309.000000	17.183356 
309.500000	17.613690 
310.000000	17.819985 
310.500000	18.146325 
311.000000	18.552066 
311.500000	18.975533 
312.000000	19.653627 
312.500000	20.420934 
313.000000	21.088116 
313.500000	21.823599 
314.000000	22.394666 
314.500000	22.637682 
315.000000	22.823201 
315.500000	22.982165 
316.000000	22.815084 
316.500000	22.737974 
317.000000	22.920776 
317.500000	23.196306 
318.000000	23.906166 
318.500000	24.671547 
319.000000	25.321048 
319.500000	25.679174 
320.000000	25.840804 
320.500000	25.397661 
321.000000	24.484158 
321.500000	23.587302 
322.000000	22.345375 
322.500000	21.442095 
323.000000	20.703104 
323.500000	20.254921 
324.000000	19.881030 
324.500000	19.712726 
325.000000	19.678617 
325.500000	19.459261 
326.000000	19.578774 
326.500000	19.464860 
327.000000	19.426392 
327.500000	19.506603 
328.000000	19.648733 
328.500000	19.394078 
329.000000	18.796129 
329.500000	17.994288 
330.000000	17.000439 
330.500000	16.258904 
331.000000	15.545264 
331.500000	14.944892 
332.000000	14.659878 
332.500000	14.655127 
333.000000	14.672879 
333.500000	14.635203 
334.000000	14.357514 
334.500000	13.869396 
335.000000	13.285196 
335.500000	12.727700 
336.000000	12.239560 
336.500000	11.866160 
337.000000	11.574594 
337.500000	11.357614 
338.000000	11.179285 
338.500000	10.972478 
339.000000	10.702169 
339.500000	10.325855 
340.000000	9.959845  
340.500000	9.699862  
341.000000	9.595221  
341.500000	9.519706  
342.000000	9.488440  
342.500000	9.524863  
343.000000	9.690458  
343.500000	9.930078  
344.000000	10.080058 
344.500000	10.195205 
345.000000	10.151732 
345.500000	10.051364 
346.000000	9.826309  
346.500000	9.530625  
347.000000	9.236415  
347.500000	9.028980  
348.000000	8.886045  
348.500000	8.809218  
349.000000	8.932572  
349.500000	8.999840  
350.000000	9.066390  
350.500000	9.038568  
351.000000	8.904781  
351.500000	8.731405  
352.000000	8.547055  
352.500000	8.296638  
353.000000	8.109595  
353.500000	8.050356  
354.000000	7.941625  
354.500000	7.936529  
355.000000	7.925581  
355.500000	7.802598  
356.000000	7.669179  
356.500000	7.589971  
357.000000	7.539661  
357.500000	7.616347  
358.000000	7.719694  
358.500000	7.759002  
359.000000	7.952968  
359.500000	8.223145  
360.000000	8.465071  
360.500000	8.612432  
361.000000	8.657661  
361.500000	8.705039  
362.000000	8.834203  
362.500000	8.914246  
363.000000	8.814859  
363.500000	8.752980  
364.000000	8.714200  
364.500000	8.711991  
365.000000	8.643472  
365.500000	8.531882  
366.000000	8.445792  
366.500000	8.418713  
367.000000	8.423256  
367.500000	8.293527  
368.000000	8.066935  
368.500000	7.842644  
369.000000	7.760185  
369.500000	7.738014  
370.000000	7.768667  
370.500000	7.852486  
371.000000	8.023951  
371.500000	8.275957  
372.000000	8.457725  
372.500000	8.422050  
373.000000	8.294920  
373.500000	8.178731  
374.000000	8.073294  
374.500000	8.109847  
375.000000	8.225637  
375.500000	8.427058  
376.000000	8.709518  
376.500000	9.022312  
377.000000	9.197351  
377.500000	9.252198  
378.000000	9.217280  
378.500000	9.143086  
379.000000	9.145392  
379.500000	9.185791  
380.000000	9.277763  
380.500000	9.457792  
381.000000	9.718774  
381.500000	9.978513  
382.000000	10.169230 
382.500000	10.265533 
383.000000	10.281296 
383.500000	10.284110 
384.000000	10.268902 
384.500000	10.098728 
385.000000	9.893714  
385.500000	9.744657  
386.000000	9.728507  
386.500000	9.783330  
387.000000	9.883128  
387.500000	10.041836 
388.000000	10.267654 
388.500000	10.516037 
389.000000	10.546852 
389.500000	10.466315 
390.000000	10.364709 
390.500000	10.289961 
391.000000	10.230862 
391.500000	10.245730 
392.000000	10.241170 
392.500000	10.358442 
393.000000	10.504830 
393.500000	10.476638 
394.000000	10.310920 
394.500000	9.995007  
395.000000	9.641339  
395.500000	9.279156  
396.000000	9.037380  
396.500000	8.784154  
397.000000	8.746702  
397.500000	8.809171  
398.000000	8.884130  
398.500000	8.937159  
399.000000	8.945485  
399.500000	8.918542  
400.000000	8.799680  
400.500000	8.723338  
401.000000	8.623832  
401.500000	8.657310  
402.000000	8.650490  
402.500000	8.735292  
403.000000	8.921128  
403.500000	9.135991  
404.000000	9.337826  
404.500000	9.448338  
405.000000	9.502115  
405.500000	9.547835  
406.000000	9.602962  
406.500000	9.508552  
407.000000	9.394199  
407.500000	9.308092  
408.000000	9.252184  
408.500000	9.159913  
409.000000	9.025302  
409.500000	8.786697  
410.000000	8.632463  
410.500000	8.560155  
411.000000	8.466051  
411.500000	8.363956  
412.000000	8.304945  
412.500000	8.271994  
413.000000	8.164092  
413.500000	7.995798  
414.000000	7.671131  
414.500000	7.352727  
415.000000	7.050050  
415.500000	6.853941  
416.000000	6.710670  
416.500000	6.667418  
417.000000	6.737690  
417.500000	6.885899  
418.000000	7.014304  
418.500000	7.066653  
419.000000	7.041680  
419.500000	6.988705  
420.000000	6.926147  
420.500000	6.838694  
421.000000	6.742292  
421.500000	6.603029  
422.000000	6.523280  
422.500000	6.419349  
423.000000	6.308332  
423.500000	6.179464  
424.000000	6.074310  
424.500000	5.963179  
425.000000	5.917113  
425.500000	5.918406  
426.000000	5.864910  
426.500000	5.831716  
427.000000	5.788823  
427.500000	5.760463  
428.000000	5.724732  
428.500000	5.729623  
429.000000	5.677023  
429.500000	5.646873  
430.000000	5.683282  
430.500000	5.692187  
431.000000	5.672696  
431.500000	5.655405  
432.000000	5.654400  
432.500000	5.647148  
433.000000	5.644490  
433.500000	5.572269  
434.000000	5.453109  
434.500000	5.336289  
435.000000	5.211678  
435.500000	5.090004  
436.000000	4.990211  
436.500000	4.947074  
437.000000	4.965358  
437.500000	5.040683  
438.000000	5.108866  
438.500000	5.162417  
439.000000	5.161518  
439.500000	5.111614  
440.000000	5.023554  
440.500000	4.913133  
441.000000	4.811566  
441.500000	4.740985  
442.000000	4.720846  
442.500000	4.686632  
443.000000	4.694389  
443.500000	4.695110  
444.000000	4.674360  
444.500000	4.641060  

