PE FL                   SPECTRUM    ASCII       PEDS        1.60        
  -1
PPCF93~1
23/10/10
16:18:28.00
23/10/10
16:18:28.00


444.500000
1









LS55
5.00
5.00
5.00
SCAN
1
20
100
100
0
500
0
2
0
1
7
ON
500 450 
1 0 0
#HDR
-1
-1
#GR
NM

0.00002384185791015625
0.0
250.000000
0.500000
390
8
74.339012
-5.000000
#DATA
250.000000	-5.000000 
250.500000	-3.887016 
251.000000	-3.187116 
251.500000	-2.773702 
252.000000	-2.438202 
252.500000	-2.501165 
253.000000	-2.689016 
253.500000	-3.186962 
254.000000	-3.637311 
254.500000	-3.792376 
255.000000	-3.637287 
255.500000	-3.494323 
256.000000	-3.006231 
256.500000	-2.377266 
257.000000	-2.208250 
257.500000	-1.970740 
258.000000	-1.884751 
258.500000	-1.736878 
259.000000	-1.681413 
259.500000	-1.650086 
260.000000	-2.028869 
260.500000	-2.292510 
261.000000	-2.113111 
261.500000	-2.174620 
262.000000	-2.342612 
262.500000	-2.296599 
263.000000	-2.004798 
263.500000	-1.561605 
264.000000	-0.888726 
264.500000	-0.685554 
265.000000	-0.633400 
265.500000	-0.644265 
266.000000	-0.689186 
266.500000	-0.943965 
267.000000	-1.016481 
267.500000	-0.999222 
268.000000	-0.857423 
268.500000	-0.518851 
269.000000	-0.367593 
269.500000	-0.478691 
270.000000	-0.921091 
270.500000	-1.525437 
271.000000	-2.381152 
271.500000	-2.943564 
272.000000	-3.211537 
272.500000	-3.329888 
273.000000	-3.224941 
273.500000	-2.875997 
274.000000	-2.390156 
274.500000	-1.830605 
275.000000	-1.414634 
275.500000	-1.524640 
276.000000	-1.507067 
276.500000	-1.156038 
277.000000	-0.951393 
277.500000	-0.593822 
278.000000	-0.126723 
278.500000	0.197349  
279.000000	0.566253  
279.500000	0.785925  
280.000000	0.203016  
280.500000	-0.569871 
281.000000	-1.141271 
281.500000	-1.990464 
282.000000	-2.914569 
282.500000	-3.517994 
283.000000	-3.903156 
283.500000	-3.839285 
284.000000	-3.289277 
284.500000	-2.983978 
285.000000	-2.768494 
285.500000	-2.413022 
286.000000	-2.140479 
286.500000	-2.279310 
287.000000	-2.438967 
287.500000	-2.683565 
288.000000	-2.679490 
288.500000	-2.599777 
289.000000	-2.397673 
289.500000	-2.272301 
290.000000	-2.066257 
290.500000	-1.562464 
291.000000	-1.387959 
291.500000	-1.254360 
292.000000	-1.148519 
292.500000	-0.955855 
293.000000	-0.768288 
293.500000	-0.397109 
294.000000	-0.292574 
294.500000	-0.276900 
295.000000	-0.320065 
295.500000	-0.556139 
296.000000	-1.072593 
296.500000	-1.663958 
297.000000	-2.323107 
297.500000	-2.837920 
298.000000	-3.127512 
298.500000	-3.399170 
299.000000	-3.368781 
299.500000	-3.083339 
300.000000	-2.559038 
300.500000	-2.084623 
301.000000	-1.718342 
301.500000	-1.619838 
302.000000	-1.517744 
302.500000	-1.635412 
303.000000	-2.062760 
303.500000	-2.522198 
304.000000	-2.991502 
304.500000	-3.151840 
305.000000	-3.167588 
305.500000	-3.271706 
306.000000	-3.242011 
306.500000	-3.100005 
307.000000	-2.924609 
307.500000	-2.879551 
308.000000	-2.957676 
308.500000	-3.035453 
309.000000	-2.887590 
309.500000	-2.546530 
310.000000	-2.294072 
310.500000	-1.965547 
311.000000	-1.640041 
311.500000	-1.415829 
312.000000	-1.203122 
312.500000	-1.264880 
313.000000	-1.511006 
313.500000	-1.673851 
314.000000	-1.530864 
314.500000	-1.335125 
315.000000	-0.823165 
315.500000	-0.162265 
316.000000	0.413448  
316.500000	1.186727  
317.000000	1.729918  
317.500000	1.946907  
318.000000	1.992521  
318.500000	2.124575  
319.000000	2.220243  
319.500000	2.518071  
320.000000	2.951665  
320.500000	3.355348  
321.000000	4.078175  
321.500000	4.920980  
322.000000	5.658519  
322.500000	6.110865  
323.000000	6.581936  
323.500000	6.847115  
324.000000	7.242516  
324.500000	7.531776  
325.000000	7.887987  
325.500000	8.370025  
326.000000	9.005806  
326.500000	9.808680  
327.000000	10.440997 
327.500000	11.254901 
328.000000	11.943412 
328.500000	12.620944 
329.000000	13.211881 
329.500000	13.737247 
330.000000	14.241686 
330.500000	14.760688 
331.000000	15.283470 
331.500000	15.419674 
332.000000	15.554228 
332.500000	15.216728 
333.000000	14.677176 
333.500000	14.394272 
334.000000	14.311602 
334.500000	14.618470 
335.000000	15.459270 
335.500000	16.716274 
336.000000	17.941624 
336.500000	19.281611 
337.000000	20.138979 
337.500000	20.490840 
338.000000	20.732594 
338.500000	20.681629 
339.000000	20.563531 
339.500000	20.541931 
340.000000	20.843003 
340.500000	21.275171 
341.000000	21.943236 
341.500000	22.375257 
342.000000	22.619830 
342.500000	22.684186 
343.000000	22.465276 
343.500000	22.191617 
344.000000	21.892540 
344.500000	21.809561 
345.000000	21.863110 
345.500000	22.207572 
346.000000	22.622792 
346.500000	23.434763 
347.000000	24.310441 
347.500000	25.288476 
348.000000	26.310737 
348.500000	27.338703 
349.000000	28.433679 
349.500000	29.440523 
350.000000	30.728942 
350.500000	31.754528 
351.000000	32.813056 
351.500000	33.644401 
352.000000	34.467867 
352.500000	35.612514 
353.000000	37.022704 
353.500000	38.487179 
354.000000	39.839122 
354.500000	41.781423 
355.000000	43.832382 
355.500000	46.213528 
356.000000	48.394563 
356.500000	50.501140 
357.000000	52.710433 
357.500000	55.295636 
358.000000	57.899331 
358.500000	60.213366 
359.000000	62.941604 
359.500000	65.476949 
360.000000	68.191337 
360.500000	70.569224 
361.000000	72.325716 
361.500000	73.287848 
362.000000	74.096195 
362.500000	74.339012 
363.000000	73.941953 
363.500000	73.449546 
364.000000	72.480405 
364.500000	71.495592 
365.000000	70.504764 
365.500000	69.644562 
366.000000	68.291570 
366.500000	66.913706 
367.000000	65.619778 
367.500000	64.101867 
368.000000	62.984388 
368.500000	62.034565 
369.000000	61.247559 
369.500000	60.852647 
370.000000	60.970432 
370.500000	61.053535 
371.000000	60.911422 
371.500000	60.935964 
372.000000	60.785460 
372.500000	60.685975 
373.000000	60.623786 
373.500000	60.306560 
374.000000	59.904553 
374.500000	59.762606 
375.000000	60.225215 
375.500000	60.814241 
376.000000	61.741871 
376.500000	62.928108 
377.000000	64.255569 
377.500000	65.629316 
378.000000	66.881493 
378.500000	67.556222 
379.000000	67.376554 
379.500000	66.838029 
380.000000	66.053110 
380.500000	65.207786 
381.000000	64.435501 
381.500000	63.563024 
382.000000	62.768151 
382.500000	62.354023 
383.000000	62.118912 
383.500000	61.485423 
384.000000	60.416644 
384.500000	59.085838 
385.000000	57.780045 
385.500000	56.497239 
386.000000	55.119253 
386.500000	53.558874 
387.000000	51.965943 
387.500000	50.482715 
388.000000	49.124271 
388.500000	47.589547 
389.000000	45.660998 
389.500000	43.692286 
390.000000	41.579407 
390.500000	39.502568 
391.000000	37.374196 
391.500000	35.106628 
392.000000	32.855135 
392.500000	30.919695 
393.000000	29.382520 
393.500000	28.222589 
394.000000	27.485472 
394.500000	26.928051 
395.000000	26.781875 
395.500000	26.788106 
396.000000	26.813018 
396.500000	26.738784 
397.000000	26.454532 
397.500000	26.050278 
398.000000	25.463201 
398.500000	24.785969 
399.000000	23.905131 
399.500000	23.019994 
400.000000	22.103291 
400.500000	21.268652 
401.000000	20.610519 
401.500000	19.970794 
402.000000	19.502719 
402.500000	19.105980 
403.000000	18.828720 
403.500000	18.546328 
404.000000	18.172382 
404.500000	17.717635 
405.000000	17.147332 
405.500000	16.615254 
406.000000	15.960732 
406.500000	15.414259 
407.000000	14.847474 
407.500000	14.393079 
408.000000	14.034434 
408.500000	13.620544 
409.000000	13.251402 
409.500000	12.923480 
410.000000	12.768657 
410.500000	12.663874 
411.000000	12.676325 
411.500000	12.692511 
412.000000	12.857562 
412.500000	13.098031 
413.000000	13.345149 
413.500000	13.532395 
414.000000	13.604645 
414.500000	13.722549 
415.000000	13.874300 
415.500000	14.086673 
416.000000	14.304505 
416.500000	14.566655 
417.000000	14.884127 
417.500000	15.347506 
418.000000	15.887822 
418.500000	16.387340 
419.000000	16.833732 
419.500000	17.347680 
420.000000	17.973278 
420.500000	18.680231 
421.000000	19.279844 
421.500000	19.757492 
422.000000	20.197080 
422.500000	20.664929 
423.000000	21.235837 
423.500000	21.714064 
424.000000	22.175760 
424.500000	22.617602 
425.000000	23.396317 
425.500000	24.234115 
426.000000	25.066228 
426.500000	25.751150 
427.000000	26.259173 
427.500000	26.861586 
428.000000	27.425195 
428.500000	27.974723 
429.000000	28.345162 
429.500000	28.969401 
430.000000	29.891357 
430.500000	31.300265 
431.000000	33.056548 
431.500000	34.987750 
432.000000	37.229400 
432.500000	40.199112 
433.000000	43.672339 
433.500000	47.129249 
434.000000	50.473136 
434.500000	53.494394 
435.000000	56.254114 
435.500000	58.613103 
436.000000	60.186157 
436.500000	60.665288 
437.000000	60.733360 
437.500000	60.443705 
438.000000	60.150613 
438.500000	59.760368 
439.000000	59.346649 
439.500000	59.320550 
440.000000	60.065016 
440.500000	61.218554 
441.000000	62.415250 
441.500000	63.928600 
442.000000	65.335856 
442.500000	66.953811 
443.000000	68.631093 
443.500000	69.931186 
444.000000	70.774321 
444.500000	71.622019 

