PE FL                   SPECTRUM    ASCII       PEDS        1.60        
  -1
PPBFA3~1
23/10/10
16:24:32.00
23/10/10
16:24:32.00


444.500000
1









LS55
50.00
5.00
5.00
SCAN
1
20
100
100
0
500
0
2
0
1
7
ON
500 450 
1 0 0
#HDR
-1
-1
#GR
NM

0.00002384185791015625
0.0
250.000000
0.500000
390
8
13.660559
-5.000000
#DATA
250.000000	-5.000000 
250.500000	-3.585878 
251.000000	-1.833337 
251.500000	-1.033855 
252.000000	0.401740  
252.500000	1.847918  
253.000000	3.187934  
253.500000	3.209261  
254.000000	3.586310  
254.500000	3.115331  
255.000000	2.692056  
255.500000	2.213350  
256.000000	1.140141  
256.500000	0.325863  
257.000000	-0.235700 
257.500000	-0.111202 
258.000000	-0.624934 
258.500000	-0.625832 
259.000000	-0.774223 
259.500000	-0.531013 
260.000000	-0.322183 
260.500000	-0.252959 
261.000000	-0.048461 
261.500000	-0.043211 
262.000000	0.132964  
262.500000	-0.519687 
263.000000	-1.391518 
263.500000	-2.162453 
264.000000	-2.530094 
264.500000	-3.097361 
265.000000	-3.309533 
265.500000	-3.063748 
266.000000	-2.692858 
266.500000	-1.957894 
267.000000	-1.720374 
267.500000	-1.866039 
268.000000	-2.029991 
268.500000	-2.186584 
269.000000	-2.790701 
269.500000	-3.206279 
270.000000	-3.429530 
270.500000	-3.491768 
271.000000	-3.472644 
271.500000	-3.646275 
272.000000	-3.706849 
272.500000	-3.556250 
273.000000	-3.188933 
273.500000	-3.007367 
274.000000	-2.414586 
274.500000	-1.854734 
275.000000	-0.990734 
275.500000	-0.106398 
276.000000	0.429113  
276.500000	0.756728  
277.000000	1.023788  
277.500000	1.106983  
278.000000	0.825801  
278.500000	0.501061  
279.000000	-0.269656 
279.500000	-0.962261 
280.000000	-1.223206 
280.500000	-1.527351 
281.000000	-1.951388 
281.500000	-2.157158 
282.000000	-1.910347 
282.500000	-1.533023 
283.000000	-1.137382 
283.500000	-0.963554 
284.000000	-0.958731 
284.500000	-0.640551 
285.000000	-0.391566 
285.500000	-0.659196 
286.000000	-1.090146 
286.500000	-1.365742 
287.000000	-1.612691 
287.500000	-2.107566 
288.000000	-2.500491 
288.500000	-2.963758 
289.000000	-3.116368 
289.500000	-2.962517 
290.000000	-2.780797 
290.500000	-2.564529 
291.000000	-2.050789 
291.500000	-1.503635 
292.000000	-1.202588 
292.500000	-0.861512 
293.000000	-0.583300 
293.500000	-0.348748 
294.000000	-0.288018 
294.500000	-0.542341 
295.000000	-0.959194 
295.500000	-1.160504 
296.000000	-1.306430 
296.500000	-1.459941 
297.000000	-1.286834 
297.500000	-0.998330 
298.000000	-0.484514 
298.500000	-0.024278 
299.000000	0.362591  
299.500000	0.286495  
300.000000	0.235635  
300.500000	0.331174  
301.000000	0.414565  
301.500000	0.717494  
302.000000	0.950237  
302.500000	1.192596  
303.000000	1.565688  
303.500000	1.929386  
304.000000	1.672721  
304.500000	1.019221  
305.000000	0.414715  
305.500000	-0.300961 
306.000000	-0.835666 
306.500000	-1.375616 
307.000000	-1.815105 
307.500000	-1.861741 
308.000000	-1.336862 
308.500000	-0.747038 
309.000000	-0.282882 
309.500000	0.527894  
310.000000	1.344910  
310.500000	2.192483  
311.000000	2.890802  
311.500000	3.486880  
312.000000	3.854569  
312.500000	4.292815  
313.000000	4.481916  
313.500000	4.445721  
314.000000	4.493464  
314.500000	4.397744  
315.000000	4.500354  
315.500000	4.647003  
316.000000	5.154318  
316.500000	5.619889  
317.000000	6.244385  
317.500000	6.955839  
318.000000	7.639606  
318.500000	8.264347  
319.000000	8.619559  
319.500000	8.954528  
320.000000	9.084028  
320.500000	9.237597  
321.000000	9.247687  
321.500000	9.161344  
322.000000	9.219049  
322.500000	9.230885  
323.000000	9.281125  
323.500000	9.611429  
324.000000	10.284263 
324.500000	10.872595 
325.000000	11.171735 
325.500000	11.366015 
326.000000	11.169193 
326.500000	10.826072 
327.000000	10.154293 
327.500000	9.136277  
328.000000	8.390155  
328.500000	8.058599  
329.000000	7.830752  
329.500000	7.621266  
330.000000	7.691949  
330.500000	7.969070  
331.000000	8.318244  
331.500000	8.619226  
332.000000	8.692946  
332.500000	8.802480  
333.000000	9.057082  
333.500000	9.262428  
334.000000	9.371783  
334.500000	9.482532  
335.000000	9.699611  
335.500000	9.861342  
336.000000	10.026625 
336.500000	10.108560 
337.000000	10.212969 
337.500000	10.341252 
338.000000	10.353511 
338.500000	10.370497 
339.000000	10.289671 
339.500000	10.242494 
340.000000	10.238671 
340.500000	10.260039 
341.000000	10.268460 
341.500000	10.237551 
342.000000	10.149917 
342.500000	9.994542  
343.000000	9.927182  
343.500000	9.825789  
344.000000	9.744316  
344.500000	9.705486  
345.000000	9.762982  
345.500000	9.842822  
346.000000	9.902656  
346.500000	10.000551 
347.000000	10.087137 
347.500000	10.141734 
348.000000	10.142408 
348.500000	10.057575 
349.000000	10.021794 
349.500000	10.025585 
350.000000	10.084352 
350.500000	10.152352 
351.000000	10.265638 
351.500000	10.438569 
352.000000	10.590066 
352.500000	10.554939 
353.000000	10.364117 
353.500000	10.183843 
354.000000	9.995659  
354.500000	9.856550  
355.000000	9.677660  
355.500000	9.592004  
356.000000	9.647553  
356.500000	9.876532  
357.000000	10.087210 
357.500000	10.238495 
358.000000	10.329300 
358.500000	10.327069 
359.000000	10.365605 
359.500000	10.267593 
360.000000	10.138950 
360.500000	10.008917 
361.000000	10.076249 
361.500000	10.262276 
362.000000	10.526808 
362.500000	10.772810 
363.000000	11.027214 
363.500000	11.512597 
364.000000	11.985677 
364.500000	12.323187 
365.000000	12.541986 
365.500000	12.785971 
366.000000	13.112801 
366.500000	13.311912 
367.000000	13.454275 
367.500000	13.455940 
368.000000	13.526197 
368.500000	13.572043 
369.000000	13.370492 
369.500000	13.085901 
370.000000	12.792136 
370.500000	12.624561 
371.000000	12.372342 
371.500000	12.166933 
372.000000	11.958712 
372.500000	12.006559 
373.000000	12.190625 
373.500000	12.245431 
374.000000	12.277152 
374.500000	12.330661 
375.000000	12.455523 
375.500000	12.487214 
376.000000	12.497567 
376.500000	12.490990 
377.000000	12.682415 
377.500000	13.007407 
378.000000	13.333732 
378.500000	13.541866 
379.000000	13.660559 
379.500000	13.635306 
380.000000	13.462480 
380.500000	13.186903 
381.000000	12.833193 
381.500000	12.477850 
382.000000	12.214959 
382.500000	12.106139 
383.000000	12.041733 
383.500000	12.089532 
384.000000	12.192340 
384.500000	12.313491 
385.000000	12.432497 
385.500000	12.605395 
386.000000	12.807992 
386.500000	12.954419 
387.000000	13.084167 
387.500000	13.091133 
388.000000	13.042708 
388.500000	12.875151 
389.000000	12.622562 
389.500000	12.211897 
390.000000	11.791565 
390.500000	11.544583 
391.000000	11.434386 
391.500000	11.456325 
392.000000	11.430463 
392.500000	11.400111 
393.000000	11.343850 
393.500000	11.284182 
394.000000	11.092504 
394.500000	10.815921 
395.000000	10.580233 
395.500000	10.395818 
396.000000	10.398139 
396.500000	10.450814 
397.000000	10.554559 
397.500000	10.703110 
398.000000	10.746755 
398.500000	10.685873 
399.000000	10.546010 
399.500000	10.383369 
400.000000	10.231051 
400.500000	10.139822 
401.000000	10.127677 
401.500000	10.120957 
402.000000	10.126969 
402.500000	10.052210 
403.000000	9.971957  
403.500000	9.879394  
404.000000	9.806674  
404.500000	9.760056  
405.000000	9.821275  
405.500000	9.970637  
406.000000	10.067085 
406.500000	10.124786 
407.000000	10.038477 
407.500000	9.855127  
408.000000	9.596040  
408.500000	9.270728  
409.000000	8.955623  
409.500000	8.801082  
410.000000	8.818029  
410.500000	8.881846  
411.000000	9.034943  
411.500000	9.222070  
412.000000	9.336190  
412.500000	9.436608  
413.000000	9.437958  
413.500000	9.307240  
414.000000	9.166395  
414.500000	9.019653  
415.000000	8.743315  
415.500000	8.500007  
416.000000	8.327764  
416.500000	8.184038  
417.000000	8.135482  
417.500000	8.146609  
418.000000	8.195490  
418.500000	8.294788  
419.000000	8.418250  
419.500000	8.459185  
420.000000	8.388000  
420.500000	8.261603  
421.000000	8.100427  
421.500000	7.914607  
422.000000	7.714831  
422.500000	7.536219  
423.000000	7.396887  
423.500000	7.305905  
424.000000	7.284180  
424.500000	7.296620  
425.000000	7.302338  
425.500000	7.311362  
426.000000	7.280850  
426.500000	7.176152  
427.000000	7.075454  
427.500000	6.959922  
428.000000	6.802223  
428.500000	6.672276  
429.000000	6.590895  
429.500000	6.545004  
430.000000	6.553600  
430.500000	6.569684  
431.000000	6.565150  
431.500000	6.566558  
432.000000	6.586934  
432.500000	6.558439  
433.000000	6.498724  
433.500000	6.465075  
434.000000	6.455256  
434.500000	6.468995  
435.000000	6.475987  
435.500000	6.465350  
436.000000	6.430570  
436.500000	6.406876  
437.000000	6.355778  
437.500000	6.272521  
438.000000	6.203724  
438.500000	6.147461  
439.000000	6.103368  
439.500000	6.076814  
440.000000	6.047192  
440.500000	5.987253  
441.000000	5.927523  
441.500000	5.856717  
442.000000	5.758096  
442.500000	5.676273  
443.000000	5.618405  
443.500000	5.556893  
444.000000	5.538490  
444.500000	5.530462  

