PE FL                   SPECTRUM    ASCII       PEDS        1.60        
  -1
PP30A3~1
23/10/10
16:23:11.00
23/10/10
16:23:11.00


444.500000
1









LS55
40.00
5.00
5.00
SCAN
1
20
100
100
0
500
0
2
0
1
7
ON
500 450 
1 0 0
#HDR
-1
-1
#GR
NM

0.00002384185791015625
0.0
250.000000
0.500000
390
8
10.928927
-5.000000
#DATA
250.000000	-5.000000 
250.500000	-4.663237 
251.000000	-4.201875 
251.500000	-3.569756 
252.000000	-3.345391 
252.500000	-3.007652 
253.000000	-2.618570 
253.500000	-2.159780 
254.000000	-2.204486 
254.500000	-2.234244 
255.000000	-2.299336 
255.500000	-2.262480 
256.000000	-1.843569 
256.500000	-1.888169 
257.000000	-1.806911 
257.500000	-1.377314 
258.000000	-0.597596 
258.500000	-0.241572 
259.000000	0.091437  
259.500000	0.074480  
260.000000	-0.173540 
260.500000	-0.432903 
261.000000	-1.141232 
261.500000	-2.024109 
262.000000	-2.642332 
262.500000	-2.820085 
263.000000	-3.183044 
263.500000	-2.914747 
264.000000	-2.433578 
264.500000	-1.981728 
265.000000	-1.483726 
265.500000	-1.059544 
266.000000	-1.027038 
266.500000	-1.034577 
267.000000	-1.183314 
267.500000	-1.848973 
268.000000	-2.456083 
268.500000	-2.811630 
269.000000	-2.968698 
269.500000	-2.868161 
270.000000	-2.344517 
270.500000	-1.739017 
271.000000	-0.810191 
271.500000	0.074956  
272.000000	0.448035  
272.500000	0.253974  
273.000000	-0.215104 
273.500000	-1.132924 
274.000000	-2.124568 
274.500000	-2.846154 
275.000000	-3.204891 
275.500000	-3.252618 
276.000000	-2.788275 
276.500000	-1.949602 
277.000000	-1.200142 
277.500000	-0.457935 
278.000000	0.155364  
278.500000	0.377242  
279.000000	0.333254  
279.500000	0.414691  
280.000000	0.158621  
280.500000	-0.064988 
281.000000	-0.383496 
281.500000	-0.854639 
282.000000	-1.269024 
282.500000	-1.550866 
283.000000	-1.996739 
283.500000	-2.722476 
284.000000	-3.035524 
284.500000	-3.560055 
285.000000	-3.751106 
285.500000	-3.773101 
286.000000	-3.658148 
286.500000	-3.350859 
287.000000	-2.617928 
287.500000	-1.857401 
288.000000	-1.284018 
288.500000	-0.491035 
289.000000	-0.045592 
289.500000	0.214909  
290.000000	0.332263  
290.500000	0.348376  
291.000000	0.348614  
291.500000	0.393554  
292.000000	0.610178  
292.500000	0.824882  
293.000000	1.307194  
293.500000	1.579876  
294.000000	1.724990  
294.500000	1.589249  
295.000000	1.221187  
295.500000	0.834056  
296.000000	0.291282  
296.500000	-0.264202 
297.000000	-0.809028 
297.500000	-1.204948 
298.000000	-1.467790 
298.500000	-1.449968 
299.000000	-1.388941 
299.500000	-1.450681 
300.000000	-1.112696 
300.500000	-0.526678 
301.000000	0.038111  
301.500000	0.459126  
302.000000	0.845677  
302.500000	1.249462  
303.000000	1.780594  
303.500000	2.054655  
304.000000	1.784046  
304.500000	1.336239  
305.000000	1.155105  
305.500000	0.841557  
306.000000	0.330747  
306.500000	-0.226501 
307.000000	-0.408232 
307.500000	-0.117208 
308.000000	0.210238  
308.500000	0.302679  
309.000000	0.217910  
309.500000	0.318029  
310.000000	0.611042  
310.500000	0.970422  
311.000000	1.272678  
311.500000	1.910107  
312.000000	3.184018  
312.500000	4.488552  
313.000000	5.689212  
313.500000	6.477432  
314.000000	6.770895  
314.500000	6.818777  
315.000000	6.751850  
315.500000	6.421284  
316.000000	5.897144  
316.500000	5.783987  
317.000000	5.669553  
317.500000	5.627479  
318.000000	5.429962  
318.500000	5.048996  
319.000000	4.684549  
319.500000	4.585693  
320.000000	4.453876  
320.500000	4.222178  
321.000000	4.221928  
321.500000	4.295476  
322.000000	4.651118  
322.500000	5.024129  
323.000000	5.343104  
323.500000	5.662848  
324.000000	6.244629  
324.500000	6.682227  
325.000000	6.944896  
325.500000	7.157933  
326.000000	7.332523  
326.500000	7.656263  
327.000000	8.034780  
327.500000	8.475922  
328.000000	9.103280  
328.500000	9.901421  
329.000000	10.540860 
329.500000	10.904244 
330.000000	10.928927 
330.500000	10.596482 
331.000000	10.085602 
331.500000	9.551475  
332.000000	9.023078  
332.500000	8.752543  
333.000000	8.537239  
333.500000	8.476772  
334.000000	8.482223  
334.500000	8.545664  
335.000000	8.475857  
335.500000	8.417691  
336.000000	8.431187  
336.500000	8.469234  
337.000000	8.658615  
337.500000	8.810269  
338.000000	8.938031  
338.500000	9.122468  
339.000000	9.303977  
339.500000	9.223698  
340.000000	9.076022  
340.500000	8.974445  
341.000000	8.856686  
341.500000	8.727414  
342.000000	8.707067  
342.500000	8.632919  
343.000000	8.613459  
343.500000	8.658882  
344.000000	8.622854  
344.500000	8.632920  
345.000000	8.712332  
345.500000	8.792954  
346.000000	8.721659  
346.500000	8.696632  
347.000000	8.782430  
347.500000	8.802687  
348.000000	8.833929  
348.500000	8.830396  
349.000000	8.822884  
349.500000	8.829345  
350.000000	8.820987  
350.500000	8.642324  
351.000000	8.330987  
351.500000	8.151882  
352.000000	7.923169  
352.500000	7.806697  
353.000000	7.771274  
353.500000	7.808488  
354.000000	7.937127  
354.500000	8.128739  
355.000000	8.365299  
355.500000	8.499549  
356.000000	8.617184  
356.500000	8.639949  
357.000000	8.673116  
357.500000	8.634209  
358.000000	8.550585  
358.500000	8.475403  
359.000000	8.287187  
359.500000	8.206140  
360.000000	8.194968  
360.500000	8.218823  
361.000000	8.279003  
361.500000	8.461445  
362.000000	8.582392  
362.500000	8.770186  
363.000000	8.986266  
363.500000	8.980926  
364.000000	8.982470  
364.500000	8.971791  
365.000000	8.959402  
365.500000	8.986484  
366.000000	9.174054  
366.500000	9.281515  
367.000000	9.462440  
367.500000	9.681047  
368.000000	9.680500  
368.500000	9.644788  
369.000000	9.481815  
369.500000	9.263896  
370.000000	8.960207  
370.500000	8.709991  
371.000000	8.358441  
371.500000	8.172551  
372.000000	8.152538  
372.500000	8.164449  
373.000000	8.306553  
373.500000	8.472148  
374.000000	8.666978  
374.500000	8.882162  
375.000000	9.090022  
375.500000	9.121044  
376.000000	9.097708  
376.500000	9.069820  
377.000000	9.032066  
377.500000	9.031371  
378.000000	9.005459  
378.500000	9.016003  
379.000000	9.144981  
379.500000	9.419358  
380.000000	9.632748  
380.500000	9.764661  
381.000000	9.856751  
381.500000	9.891561  
382.000000	9.868868  
382.500000	9.801741  
383.000000	9.593096  
383.500000	9.335457  
384.000000	9.166213  
384.500000	9.043148  
385.000000	8.892745  
385.500000	8.773835  
386.000000	8.725928  
386.500000	8.700893  
387.000000	8.754375  
387.500000	8.810694  
388.000000	8.852994  
388.500000	8.935860  
389.000000	9.066023  
389.500000	9.119336  
390.000000	9.118474  
390.500000	9.119726  
391.000000	9.095687  
391.500000	9.104836  
392.000000	9.161078  
392.500000	9.228985  
393.000000	9.304213  
393.500000	9.422858  
394.000000	9.438558  
394.500000	9.353537  
395.000000	9.214658  
395.500000	9.019601  
396.000000	8.737738  
396.500000	8.519449  
397.000000	8.340638  
397.500000	8.265357  
398.000000	8.259624  
398.500000	8.255931  
399.000000	8.261483  
399.500000	8.307917  
400.000000	8.381957  
400.500000	8.352784  
401.000000	8.360305  
401.500000	8.335598  
402.000000	8.333316  
402.500000	8.360893  
403.000000	8.349156  
403.500000	8.320851  
404.000000	8.316651  
404.500000	8.359654  
405.000000	8.275471  
405.500000	8.200552  
406.000000	8.103847  
406.500000	7.963203  
407.000000	7.834678  
407.500000	7.632320  
408.000000	7.393347  
408.500000	7.166523  
409.000000	7.014832  
409.500000	6.823213  
410.000000	6.727220  
410.500000	6.718945  
411.000000	6.697863  
411.500000	6.775005  
412.000000	6.817959  
412.500000	6.852594  
413.000000	6.870274  
413.500000	6.860333  
414.000000	6.765148  
414.500000	6.723041  
415.000000	6.699324  
415.500000	6.686062  
416.000000	6.715421  
416.500000	6.740550  
417.000000	6.793407  
417.500000	6.806529  
418.000000	6.739810  
418.500000	6.583198  
419.000000	6.471906  
419.500000	6.307674  
420.000000	6.133832  
420.500000	5.995197  
421.000000	5.918729  
421.500000	5.918505  
422.000000	5.885134  
422.500000	5.823197  
423.000000	5.754202  
423.500000	5.732940  
424.000000	5.670990  
424.500000	5.582282  
425.000000	5.493555  
425.500000	5.454488  
426.000000	5.488223  
426.500000	5.521811  
427.000000	5.543707  
427.500000	5.596668  
428.000000	5.692882  
428.500000	5.770999  
429.000000	5.788647  
429.500000	5.786058  
430.000000	5.757883  
430.500000	5.697391  
431.000000	5.599283  
431.500000	5.471781  
432.000000	5.384003  
432.500000	5.322414  
433.000000	5.269723  
433.500000	5.222507  
434.000000	5.254230  
434.500000	5.297841  
435.000000	5.350561  
435.500000	5.366300  
436.000000	5.321027  
436.500000	5.265339  
437.000000	5.197567  
437.500000	5.112970  
438.000000	5.000038  
438.500000	4.946636  
439.000000	4.882564  
439.500000	4.876962  
440.000000	4.893776  
440.500000	4.931670  
441.000000	4.988730  
441.500000	5.042600  
442.000000	5.118680  
442.500000	5.208398  
443.000000	5.328740  
443.500000	5.414736  
444.000000	5.497805  
444.500000	5.552015  

