PE FL                   SPECTRUM    ASCII       PEDS        1.60        
  -1
PM40FC~1
23/10/10
10:49:27.00
23/10/10
10:49:27.00


444.500000
1









LS55
5.00
5.00
5.00
SCAN
1
20
100
100
0
500
0
2
0
1
7
ON
500 450 
1 0 0
#HDR
-1
-1
#GR
NM

0.00002384185791015625
0.0
300.000000
0.500000
290
8
66.044391
-1.012000
#DATA
300.000000	-1.012000 
300.500000	0.384075  
301.000000	1.394702  
301.500000	2.369899  
302.000000	2.845734  
302.500000	2.903287  
303.000000	2.705962  
303.500000	2.303193  
304.000000	1.654369  
304.500000	1.387709  
305.000000	1.164478  
305.500000	1.073519  
306.000000	1.360372  
306.500000	1.702758  
307.000000	2.167942  
307.500000	2.636357  
308.000000	2.998316  
308.500000	3.188311  
309.000000	3.415646  
309.500000	3.380112  
310.000000	3.102032  
310.500000	2.942123  
311.000000	2.619218  
311.500000	2.248340  
312.000000	1.987484  
312.500000	1.708903  
313.000000	1.663953  
313.500000	1.778162  
314.000000	2.092523  
314.500000	2.435551  
315.000000	3.011293  
315.500000	3.670032  
316.000000	4.235368  
316.500000	5.024893  
317.000000	5.797584  
317.500000	6.665331  
318.000000	7.274531  
318.500000	7.875908  
319.000000	8.389208  
319.500000	8.993186  
320.000000	9.729384  
320.500000	10.306574 
321.000000	10.997943 
321.500000	11.572733 
322.000000	12.096581 
322.500000	12.317771 
323.000000	12.426956 
323.500000	12.469570 
324.000000	12.339012 
324.500000	12.277463 
325.000000	12.297256 
325.500000	12.563372 
326.000000	12.848990 
326.500000	13.187570 
327.000000	13.449977 
327.500000	13.663749 
328.000000	13.845663 
328.500000	13.846711 
329.000000	13.782741 
329.500000	13.766849 
330.000000	13.883473 
330.500000	14.000815 
331.000000	14.000019 
331.500000	14.061063 
332.000000	14.227156 
332.500000	14.502292 
333.000000	14.762817 
333.500000	15.118338 
334.000000	15.616271 
334.500000	16.102128 
335.000000	16.765245 
335.500000	17.361373 
336.000000	18.010660 
336.500000	18.804695 
337.000000	19.590643 
337.500000	20.374821 
338.000000	21.193320 
338.500000	22.134155 
339.000000	22.836839 
339.500000	23.325818 
340.000000	23.514264 
340.500000	23.405675 
341.000000	23.009369 
341.500000	22.168281 
342.000000	21.184786 
342.500000	20.323918 
343.000000	19.879387 
343.500000	19.768929 
344.000000	20.011013 
344.500000	20.512786 
345.000000	21.237847 
345.500000	22.230133 
346.000000	22.995743 
346.500000	23.712318 
347.000000	24.339934 
347.500000	25.114916 
348.000000	26.113639 
348.500000	27.167761 
349.000000	28.255202 
349.500000	29.350045 
350.000000	30.475151 
350.500000	31.407280 
351.000000	31.995064 
351.500000	32.302032 
352.000000	32.505393 
352.500000	32.976999 
353.000000	33.666527 
353.500000	34.535069 
354.000000	35.691781 
354.500000	37.486492 
355.000000	39.541657 
355.500000	41.866150 
356.000000	44.332422 
356.500000	46.613359 
357.000000	48.842953 
357.500000	50.877836 
358.000000	52.351091 
358.500000	53.420075 
359.000000	54.542695 
359.500000	55.274207 
360.000000	56.078961 
360.500000	57.233522 
361.000000	58.579823 
361.500000	60.205799 
362.000000	62.157818 
362.500000	63.887147 
363.000000	65.085811 
363.500000	66.044391 
364.000000	65.920550 
364.500000	65.081907 
365.000000	63.786722 
365.500000	62.214667 
366.000000	60.547522 
366.500000	59.062114 
367.000000	58.001803 
367.500000	56.951273 
368.000000	56.423323 
368.500000	55.833911 
369.000000	55.291975 
369.500000	55.026913 
370.000000	54.918367 
370.500000	54.910747 
371.000000	54.817116 
371.500000	55.230313 
372.000000	55.796588 
372.500000	56.687229 
373.000000	57.400371 
373.500000	57.730505 
374.000000	58.060202 
374.500000	58.410708 
375.000000	58.842864 
375.500000	58.974777 
376.000000	59.225637 
376.500000	59.653525 
377.000000	60.449244 
377.500000	61.275532 
378.000000	61.904171 
378.500000	62.202609 
379.000000	62.005185 
379.500000	61.562659 
380.000000	60.871315 
380.500000	60.067683 
381.000000	59.254582 
381.500000	58.305709 
382.000000	57.464212 
382.500000	57.059076 
383.000000	56.890740 
383.500000	56.337896 
384.000000	55.520936 
384.500000	54.633509 
385.000000	54.023130 
385.500000	53.384480 
386.000000	52.485524 
386.500000	51.272555 
387.000000	49.800973 
387.500000	48.437474 
388.000000	46.735894 
388.500000	44.656583 
389.000000	42.265923 
389.500000	40.006241 
390.000000	37.840690 
390.500000	35.745106 
391.000000	33.760023 
391.500000	31.740696 
392.000000	30.026425 
392.500000	28.513782 
393.000000	27.203242 
393.500000	26.061998 
394.000000	25.214269 
394.500000	24.447375 
395.000000	23.964681 
395.500000	23.711351 
396.000000	23.562083 
396.500000	23.516356 
397.000000	23.566348 
397.500000	23.505141 
398.000000	23.250885 
398.500000	22.876204 
399.000000	22.290393 
399.500000	21.549928 
400.000000	20.591174 
400.500000	19.602969 
401.000000	18.622488 
401.500000	17.783941 
402.000000	17.111664 
402.500000	16.573860 
403.000000	16.201837 
403.500000	15.885750 
404.000000	15.621094 
404.500000	15.356376 
405.000000	15.085064 
405.500000	14.769592 
406.000000	14.259149 
406.500000	13.667816 
407.000000	12.996584 
407.500000	12.384275 
408.000000	11.863858 
408.500000	11.451767 
409.000000	11.184264 
409.500000	11.175350 
410.000000	11.346233 
410.500000	11.494070 
411.000000	11.608955 
411.500000	11.634779 
412.000000	11.578259 
412.500000	11.562332 
413.000000	11.623440 
413.500000	11.677269 
414.000000	11.860794 
414.500000	12.115301 
415.000000	12.430949 
415.500000	12.722756 
416.000000	13.000682 
416.500000	13.211920 
417.000000	13.445499 
417.500000	13.813337 
418.000000	14.268472 
418.500000	14.790952 
419.000000	15.201150 
419.500000	15.545057 
420.000000	15.883928 
420.500000	16.192140 
421.000000	16.384095 
421.500000	16.509620 
422.000000	16.763679 
422.500000	17.140837 
423.000000	17.664941 
423.500000	18.200825 
424.000000	18.651306 
424.500000	19.173495 
425.000000	19.871471 
425.500000	20.607750 
426.000000	21.290322 
426.500000	21.894087 
427.000000	22.392099 
427.500000	22.916131 
428.000000	23.392169 
428.500000	23.632051 
429.000000	23.819037 
429.500000	24.195081 
430.000000	24.818651 
430.500000	25.789224 
431.000000	27.050427 
431.500000	28.521060 
432.000000	30.416371 
432.500000	32.881294 
433.000000	35.545558 
433.500000	38.194502 
434.000000	40.776543 
434.500000	43.166588 
435.000000	45.306321 
435.500000	47.111186 
436.000000	48.283599 
436.500000	48.917083 
437.000000	49.479669 
437.500000	49.891396 
438.000000	50.177145 
438.500000	50.382244 
439.000000	50.582252 
439.500000	50.916627 
440.000000	51.776671 
440.500000	52.757739 
441.000000	53.773232 
441.500000	55.052606 
442.000000	56.559739 
442.500000	58.161071 
443.000000	59.840894 
443.500000	61.249350 
444.000000	62.188153 
444.500000	63.165856 

