PE FL                   SPECTRUM    ASCII       PEDS        1.60        
  -1
PM400D~1
23/10/10
10:50:01.00
23/10/10
10:50:01.00


444.500000
1









LS55
10.00
5.00
5.00
SCAN
1
20
100
100
0
500
0
2
0
1
7
ON
500 450 
1 0 0
#HDR
-1
-1
#GR
NM

0.00002384185791015625
0.0
300.000000
0.500000
290
8
7.296082
-0.447973
#DATA
300.000000	1.971000  
300.500000	2.085109  
301.000000	2.309472  
301.500000	2.300275  
302.000000	2.244818  
302.500000	2.035556  
303.000000	1.742481  
303.500000	1.454179  
304.000000	1.259583  
304.500000	1.015527  
305.000000	0.589415  
305.500000	0.226444  
306.000000	-0.101133 
306.500000	-0.181054 
307.000000	-0.127379 
307.500000	-0.339501 
308.000000	-0.447973 
308.500000	-0.362175 
309.000000	0.044388  
309.500000	0.215555  
310.000000	0.416474  
310.500000	0.592033  
311.000000	0.722063  
311.500000	1.074050  
312.000000	1.021691  
312.500000	0.889853  
313.000000	0.592055  
313.500000	0.569058  
314.000000	0.403529  
314.500000	0.427769  
315.000000	0.717481  
315.500000	1.199010  
316.000000	2.143101  
316.500000	2.824015  
317.000000	3.393204  
317.500000	3.623950  
318.000000	3.730721  
318.500000	3.549407  
319.000000	3.131692  
319.500000	2.627835  
320.000000	2.326292  
320.500000	2.332142  
321.000000	2.456438  
321.500000	2.841627  
322.000000	3.378438  
322.500000	3.933240  
323.000000	4.578754  
323.500000	4.991093  
324.000000	5.183153  
324.500000	5.520545  
325.000000	6.028537  
325.500000	6.504731  
326.000000	6.683764  
326.500000	6.787693  
327.000000	6.773291  
327.500000	6.660708  
328.000000	6.323438  
328.500000	5.817809  
329.000000	5.450212  
329.500000	5.513500  
330.000000	6.015743  
330.500000	6.402515  
331.000000	6.730117  
331.500000	7.051383  
332.000000	7.296082  
332.500000	7.204041  
333.000000	6.805584  
333.500000	6.110330  
334.000000	5.511993  
334.500000	5.273169  
335.000000	5.007366  
335.500000	4.649084  
336.000000	4.331356  
336.500000	4.158023  
337.000000	3.997849  
337.500000	3.862266  
338.000000	3.657823  
338.500000	3.445394  
339.000000	3.395037  
339.500000	3.535875  
340.000000	3.562636  
340.500000	3.506944  
341.000000	3.508234  
341.500000	3.490937  
342.000000	3.579602  
342.500000	3.676880  
343.000000	3.662887  
343.500000	3.498740  
344.000000	3.397030  
344.500000	3.152308  
345.000000	2.854153  
345.500000	2.517538  
346.000000	2.138977  
346.500000	1.996662  
347.000000	2.050762  
347.500000	2.185065  
348.000000	2.245453  
348.500000	2.398783  
349.000000	2.445257  
349.500000	2.356053  
350.000000	2.246802  
350.500000	2.053366  
351.000000	2.025375  
351.500000	2.105964  
352.000000	2.339181  
352.500000	2.549932  
353.000000	2.694907  
353.500000	2.693079  
354.000000	2.562506  
354.500000	2.388645  
355.000000	2.104256  
355.500000	1.771246  
356.000000	1.509916  
356.500000	1.588449  
357.000000	1.748669  
357.500000	1.972903  
358.000000	2.200434  
358.500000	2.425088  
359.000000	2.646894  
359.500000	2.803856  
360.000000	2.834437  
360.500000	2.788886  
361.000000	2.922736  
361.500000	3.097704  
362.000000	3.199690  
362.500000	3.190660  
363.000000	3.228846  
363.500000	3.263657  
364.000000	3.199268  
364.500000	3.044175  
365.000000	2.817468  
365.500000	2.695982  
366.000000	2.646717  
366.500000	2.536113  
367.000000	2.357913  
367.500000	2.289298  
368.000000	2.228438  
368.500000	2.114135  
369.000000	1.988519  
369.500000	1.864650  
370.000000	1.852563  
370.500000	1.973064  
371.000000	2.127037  
371.500000	2.222760  
372.000000	2.371825  
372.500000	2.516736  
373.000000	2.611272  
373.500000	2.677967  
374.000000	2.663892  
374.500000	2.666808  
375.000000	2.699844  
375.500000	2.711826  
376.000000	2.666008  
376.500000	2.621793  
377.000000	2.542896  
377.500000	2.456647  
378.000000	2.369865  
378.500000	2.303735  
379.000000	2.271543  
379.500000	2.246540  
380.000000	2.278203  
380.500000	2.288866  
381.000000	2.344942  
381.500000	2.407882  
382.000000	2.434061  
382.500000	2.426004  
383.000000	2.381348  
383.500000	2.296345  
384.000000	2.200134  
384.500000	2.149013  
385.000000	2.063155  
385.500000	2.062682  
386.000000	2.141490  
386.500000	2.302099  
387.000000	2.507999  
387.500000	2.677394  
388.000000	2.773667  
388.500000	2.741334  
389.000000	2.622189  
389.500000	2.345340  
390.000000	2.073147  
390.500000	1.856728  
391.000000	1.702245  
391.500000	1.715851  
392.000000	1.772299  
392.500000	1.900149  
393.000000	2.074888  
393.500000	2.228504  
394.000000	2.273458  
394.500000	2.249414  
395.000000	2.176175  
395.500000	2.101049  
396.000000	2.094804  
396.500000	2.056886  
397.000000	2.097236  
397.500000	2.150582  
398.000000	2.164594  
398.500000	2.118080  
399.000000	2.020336  
399.500000	1.908648  
400.000000	1.789528  
400.500000	1.719185  
401.000000	1.647550  
401.500000	1.654662  
402.000000	1.680560  
402.500000	1.670571  
403.000000	1.658903  
403.500000	1.623397  
404.000000	1.580703  
404.500000	1.521791  
405.000000	1.505956  
405.500000	1.537096  
406.000000	1.660655  
406.500000	1.804922  
407.000000	1.860356  
407.500000	1.866025  
408.000000	1.847428  
408.500000	1.798435  
409.000000	1.684442  
409.500000	1.588466  
410.000000	1.539247  
410.500000	1.580375  
411.000000	1.688137  
411.500000	1.788385  
412.000000	1.891198  
412.500000	1.998874  
413.000000	2.087000  
413.500000	2.099494  
414.000000	2.088337  
414.500000	2.040227  
415.000000	1.986557  
415.500000	1.965511  
416.000000	1.973720  
416.500000	2.006457  
417.000000	2.038120  
417.500000	2.082530  
418.000000	2.097985  
418.500000	2.113543  
419.000000	2.089450  
419.500000	2.008359  
420.000000	1.895476  
420.500000	1.783267  
421.000000	1.712878  
421.500000	1.652413  
422.000000	1.632073  
422.500000	1.633122  
423.000000	1.668518  
423.500000	1.735480  
424.000000	1.794234  
424.500000	1.847907  
425.000000	1.857506  
425.500000	1.861296  
426.000000	1.854850  
426.500000	1.837469  
427.000000	1.809913  
427.500000	1.774782  
428.000000	1.741361  
428.500000	1.709090  
429.000000	1.695086  
429.500000	1.657617  
430.000000	1.613053  
430.500000	1.590429  
431.000000	1.577108  
431.500000	1.579812  
432.000000	1.583396  
432.500000	1.582202  
433.000000	1.598383  
433.500000	1.618283  
434.000000	1.614855  
434.500000	1.599737  
435.000000	1.588267  
435.500000	1.570782  
436.000000	1.563795  
436.500000	1.556406  
437.000000	1.544050  
437.500000	1.555505  
438.000000	1.567562  
438.500000	1.578463  
439.000000	1.591434  
439.500000	1.608627  
440.000000	1.619249  
440.500000	1.633412  
441.000000	1.648263  
441.500000	1.655199  
442.000000	1.664864  
442.500000	1.671107  
443.000000	1.670516  
443.500000	1.668817  
444.000000	1.653620  
444.500000	1.633817  

