PE FL                   SPECTRUM    ASCII       PEDS        1.60        
  -1
PMDF4B~1
23/10/12
12:10:58.00
23/10/12
12:10:58.00


444.500000
1









LS55
20.00
5.00
5.00
SCAN
1
20
100
500
0
500
0
2
0
1
7
ON
500 450 
1 0 0
#HDR
-1
-1
#GR
NM

0.00002384185791015625
0.0
250.000000
0.500000
390
8
11.958423
-4.178566
#DATA
250.000000	6.025999  
250.500000	3.535489  
251.000000	1.762510  
251.500000	0.792233  
252.000000	0.157928  
252.500000	-0.113464 
253.000000	-0.237022 
253.500000	0.154777  
254.000000	-0.018488 
254.500000	-0.495863 
255.000000	-0.872109 
255.500000	-0.941821 
256.000000	-0.866581 
256.500000	-0.713630 
257.000000	-0.924350 
257.500000	-1.208089 
258.000000	-1.001647 
258.500000	-1.432521 
259.000000	-1.908566 
259.500000	-2.222625 
260.000000	-2.291336 
260.500000	-2.166761 
261.000000	-1.773629 
261.500000	-1.894367 
262.000000	-2.190579 
262.500000	-2.388604 
263.000000	-3.133746 
263.500000	-3.820845 
264.000000	-4.175927 
264.500000	-4.178566 
265.000000	-3.853749 
265.500000	-3.348307 
266.000000	-3.198680 
266.500000	-2.860449 
267.000000	-2.407688 
267.500000	-2.291312 
268.000000	-2.350605 
268.500000	-2.306629 
269.000000	-2.161982 
269.500000	-1.665170 
270.000000	-1.152297 
270.500000	-0.935837 
271.000000	-0.650015 
271.500000	-0.363657 
272.000000	-0.391816 
272.500000	-0.788895 
273.000000	-1.245535 
273.500000	-1.805126 
274.000000	-2.191775 
274.500000	-2.348064 
275.000000	-2.353351 
275.500000	-2.095528 
276.000000	-1.808516 
276.500000	-1.479757 
277.000000	-1.142885 
277.500000	-1.017347 
278.000000	-1.036871 
278.500000	-1.107969 
279.000000	-1.137272 
279.500000	-0.870858 
280.000000	-0.348328 
280.500000	-0.126088 
281.000000	-0.139194 
281.500000	-0.208203 
282.000000	-0.501977 
282.500000	-0.887394 
283.000000	-1.267724 
283.500000	-1.696564 
284.000000	-1.960204 
284.500000	-1.886240 
285.000000	-2.180251 
285.500000	-2.691439 
286.000000	-3.044842 
286.500000	-3.140098 
287.000000	-2.936705 
287.500000	-2.453477 
288.000000	-1.756434 
288.500000	-0.817590 
289.000000	0.403202  
289.500000	1.198342  
290.000000	1.178562  
290.500000	0.481559  
291.000000	-0.357983 
291.500000	-1.105020 
292.000000	-1.905207 
292.500000	-2.715124 
293.000000	-3.167812 
293.500000	-2.973266 
294.000000	-2.500522 
294.500000	-2.150259 
295.000000	-2.031009 
295.500000	-1.894246 
296.000000	-1.378856 
296.500000	-0.567862 
297.000000	0.186969  
297.500000	0.974687  
298.000000	1.867053  
298.500000	2.780583  
299.000000	3.507713  
299.500000	3.958634  
300.000000	4.001511  
300.500000	3.828665  
301.000000	3.799834  
301.500000	3.646305  
302.000000	3.057506  
302.500000	2.476860  
303.000000	1.666490  
303.500000	0.909423  
304.000000	0.548087  
304.500000	0.210723  
305.000000	0.036083  
305.500000	0.525709  
306.000000	1.549072  
306.500000	2.500934  
307.000000	3.673170  
307.500000	4.213722  
308.000000	4.200081  
308.500000	3.854785  
309.000000	2.971145  
309.500000	1.940901  
310.000000	1.268339  
310.500000	1.216644  
311.000000	1.501715  
311.500000	2.434516  
312.000000	3.592802  
312.500000	4.937441  
313.000000	6.174572  
313.500000	6.967839  
314.000000	7.253568  
314.500000	7.135936  
315.000000	6.817398  
315.500000	6.377942  
316.000000	5.999757  
316.500000	5.688977  
317.000000	5.701140  
317.500000	6.010315  
318.000000	6.750572  
318.500000	7.472014  
319.000000	7.962151  
319.500000	8.307490  
320.000000	8.586555  
320.500000	8.826663  
321.000000	8.905907  
321.500000	8.779532  
322.000000	8.834911  
322.500000	9.428958  
323.000000	10.201507 
323.500000	10.762920 
324.000000	11.010116 
324.500000	10.976708 
325.000000	11.142954 
325.500000	11.215739 
326.000000	10.970035 
326.500000	10.749388 
327.000000	10.864528 
327.500000	11.265548 
328.000000	11.708156 
328.500000	11.958423 
329.000000	11.694208 
329.500000	11.217159 
330.000000	10.465050 
330.500000	9.345438  
331.000000	8.180762  
331.500000	7.089633  
332.000000	6.401779  
332.500000	6.041302  
333.000000	5.996482  
333.500000	6.099203  
334.000000	6.283250  
334.500000	6.560644  
335.000000	6.776335  
335.500000	6.835289  
336.000000	6.664232  
336.500000	6.446854  
337.000000	6.195747  
337.500000	5.834992  
338.000000	5.591357  
338.500000	5.276212  
339.000000	4.963398  
339.500000	4.749845  
340.000000	4.506460  
340.500000	4.186679  
341.000000	3.976042  
341.500000	3.742416  
342.000000	3.384334  
342.500000	3.091958  
343.000000	2.747627  
343.500000	2.322903  
344.000000	2.048653  
344.500000	1.755402  
345.000000	1.668751  
345.500000	1.742782  
346.000000	1.873702  
346.500000	2.060285  
347.000000	2.387736  
347.500000	2.790998  
348.000000	3.038642  
348.500000	3.272535  
349.000000	3.312760  
349.500000	3.281958  
350.000000	3.227098  
350.500000	3.091470  
351.000000	2.972781  
351.500000	2.891107  
352.000000	2.899669  
352.500000	2.903777  
353.000000	2.928112  
353.500000	2.914198  
354.000000	2.854743  
354.500000	2.839052  
355.000000	2.943823  
355.500000	3.105862  
356.000000	3.308920  
356.500000	3.562600  
357.000000	3.766833  
357.500000	3.908339  
358.000000	3.998294  
358.500000	3.917278  
359.000000	3.792828  
359.500000	3.745954  
360.000000	3.767113  
360.500000	3.757540  
361.000000	3.796026  
361.500000	3.887428  
362.000000	3.953540  
362.500000	3.969244  
363.000000	3.839042  
363.500000	3.575194  
364.000000	3.282233  
364.500000	3.028874  
365.000000	2.751091  
365.500000	2.538826  
366.000000	2.463111  
366.500000	2.486452  
367.000000	2.623458  
367.500000	2.768682  
368.000000	2.906661  
368.500000	3.008110  
369.000000	3.150651  
369.500000	3.238780  
370.000000	3.261719  
370.500000	3.294003  
371.000000	3.313095  
371.500000	3.357342  
372.000000	3.412659  
372.500000	3.418308  
373.000000	3.392826  
373.500000	3.365716  
374.000000	3.361778  
374.500000	3.378170  
375.000000	3.472413  
375.500000	3.512403  
376.000000	3.514015  
376.500000	3.483341  
377.000000	3.388595  
377.500000	3.328739  
378.000000	3.321502  
378.500000	3.337162  
379.000000	3.419933  
379.500000	3.607789  
380.000000	3.742500  
380.500000	3.830492  
381.000000	3.840956  
381.500000	3.754785  
382.000000	3.625852  
382.500000	3.468793  
383.000000	3.318296  
383.500000	3.238834  
384.000000	3.229799  
384.500000	3.229036  
385.000000	3.259118  
385.500000	3.251761  
386.000000	3.260000  
386.500000	3.260031  
387.000000	3.192453  
387.500000	3.147181  
388.000000	3.153057  
388.500000	3.127709  
389.000000	3.092469  
389.500000	3.090732  
390.000000	3.026035  
390.500000	2.988031  
391.000000	2.992030  
391.500000	2.943506  
392.000000	2.946412  
392.500000	3.018526  
393.000000	3.088526  
393.500000	3.163747  
394.000000	3.268085  
394.500000	3.361426  
395.000000	3.447812  
395.500000	3.501471  
396.000000	3.509302  
396.500000	3.492651  
397.000000	3.487948  
397.500000	3.475993  
398.000000	3.423861  
398.500000	3.329086  
399.000000	3.256196  
399.500000	3.229507  
400.000000	3.179444  
400.500000	3.126144  
401.000000	3.043644  
401.500000	2.994218  
402.000000	3.015894  
402.500000	3.056587  
403.000000	3.037142  
403.500000	3.016670  
404.000000	3.064369  
404.500000	3.159068  
405.000000	3.232966  
405.500000	3.267668  
406.000000	3.293622  
406.500000	3.369318  
407.000000	3.426505  
407.500000	3.434119  
408.000000	3.386586  
408.500000	3.319120  
409.000000	3.292008  
409.500000	3.214539  
410.000000	3.132343  
410.500000	3.045470  
411.000000	3.045376  
411.500000	3.067812  
412.000000	3.117392  
412.500000	3.188198  
413.000000	3.258324  
413.500000	3.328595  
414.000000	3.332123  
414.500000	3.299612  
415.000000	3.228298  
415.500000	3.136001  
416.000000	3.010137  
416.500000	2.874467  
417.000000	2.758542  
417.500000	2.675954  
418.000000	2.601353  
418.500000	2.542413  
419.000000	2.491455  
419.500000	2.459298  
420.000000	2.422772  
420.500000	2.380484  
421.000000	2.333184  
421.500000	2.295382  
422.000000	2.266278  
422.500000	2.224444  
423.000000	2.213910  
423.500000	2.203964  
424.000000	2.216547  
424.500000	2.211196  
425.000000	2.181371  
425.500000	2.143761  
426.000000	2.113296  
426.500000	2.066479  
427.000000	1.997396  
427.500000	1.952865  
428.000000	1.909655  
428.500000	1.895884  
429.000000	1.897587  
429.500000	1.902976  
430.000000	1.909322  
430.500000	1.926570  
431.000000	1.948059  
431.500000	1.963941  
432.000000	1.988268  
432.500000	2.003281  
433.000000	2.020792  
433.500000	2.028981  
434.000000	2.014002  
434.500000	1.975735  
435.000000	1.922073  
435.500000	1.859539  
436.000000	1.796453  
436.500000	1.749757  
437.000000	1.727672  
437.500000	1.715166  
438.000000	1.712006  
438.500000	1.725064  
439.000000	1.749938  
439.500000	1.772755  
440.000000	1.785111  
440.500000	1.794951  
441.000000	1.791943  
441.500000	1.799729  
442.000000	1.806988  
442.500000	1.810423  
443.000000	1.810741  
443.500000	1.817563  
444.000000	1.815643  
444.500000	1.797472  

