PE FL                   SPECTRUM    ASCII       PEDS        1.60        
  -1
PMBDF8~1
23/10/10
17:05:49.00
23/10/10
17:05:49.00


444.500000
1









LS55
50.00
5.00
5.00
SCAN
1
20
100
100
0
500
0
2
0
1
7
ON
500 450 
1 0 0
#HDR
-1
-1
#GR
NM

0.00002384185791015625
0.0
300.000000
0.500000
290
8
40.658441
0.597023
#DATA
300.000000	29.069000 
300.500000	25.760898 
301.000000	23.324800 
301.500000	21.547455 
302.000000	20.914363 
302.500000	21.111278 
303.000000	21.756490 
303.500000	22.390555 
304.000000	22.981872 
304.500000	23.173166 
305.000000	23.005736 
305.500000	22.968979 
306.000000	22.761307 
306.500000	22.727107 
307.000000	22.985498 
307.500000	23.395394 
308.000000	23.528022 
308.500000	23.453646 
309.000000	23.544093 
309.500000	23.501481 
310.000000	23.343823 
310.500000	23.068582 
311.000000	23.074969 
311.500000	23.614106 
312.000000	24.342464 
312.500000	24.988168 
313.000000	25.561167 
313.500000	26.316210 
314.000000	26.986863 
314.500000	27.341627 
315.000000	26.982524 
315.500000	26.291264 
316.000000	25.567513 
316.500000	24.701754 
317.000000	23.722415 
317.500000	22.686072 
318.000000	21.921318 
318.500000	21.443535 
319.000000	21.108337 
319.500000	20.683409 
320.000000	20.517716 
320.500000	20.437924 
321.000000	20.160183 
321.500000	20.001867 
322.000000	19.807634 
322.500000	19.480191 
323.000000	19.199376 
323.500000	18.774777 
324.000000	18.306544 
324.500000	17.995971 
325.000000	17.717769 
325.500000	17.323350 
326.000000	17.100817 
326.500000	17.072809 
327.000000	17.323032 
327.500000	17.753590 
328.000000	17.915434 
328.500000	18.132551 
329.000000	18.206862 
329.500000	18.180984 
330.000000	17.833749 
330.500000	17.248541 
331.000000	16.651554 
331.500000	16.376446 
332.000000	16.265923 
332.500000	16.096029 
333.000000	16.059832 
333.500000	16.074512 
334.000000	16.024350 
334.500000	15.943667 
335.000000	15.617797 
335.500000	15.043334 
336.000000	14.827571 
336.500000	14.795944 
337.000000	14.891406 
337.500000	15.102606 
338.000000	15.650237 
338.500000	16.454727 
339.000000	17.782137 
339.500000	19.368927 
340.000000	21.011051 
340.500000	23.047068 
341.000000	25.150711 
341.500000	27.234485 
342.000000	29.222065 
342.500000	31.043652 
343.000000	32.559414 
343.500000	34.158026 
344.000000	35.644049 
344.500000	36.965568 
345.000000	38.372857 
345.500000	39.548657 
346.000000	40.258939 
346.500000	40.658441 
347.000000	40.502026 
347.500000	39.580738 
348.000000	38.157852 
348.500000	36.072804 
349.000000	33.605549 
349.500000	30.928471 
350.000000	28.247489 
350.500000	25.368736 
351.000000	22.704644 
351.500000	20.315804 
352.000000	18.039152 
352.500000	16.118769 
353.000000	14.397693 
353.500000	12.965775 
354.000000	11.691966 
354.500000	10.718485 
355.000000	9.891326  
355.500000	9.163228  
356.000000	8.537207  
356.500000	7.799421  
357.000000	7.140429  
357.500000	6.479812  
358.000000	5.759398  
358.500000	4.907635  
359.000000	4.153125  
359.500000	3.643444  
360.000000	3.279877  
360.500000	3.081394  
361.000000	2.925789  
361.500000	2.998729  
362.000000	3.162527  
362.500000	3.271772  
363.000000	3.291858  
363.500000	3.146510  
364.000000	3.041867  
364.500000	2.868674  
365.000000	2.649041  
365.500000	2.331022  
366.000000	2.148750  
366.500000	2.055008  
367.000000	2.013253  
367.500000	2.070194  
368.000000	2.077197  
368.500000	2.133753  
369.000000	2.191638  
369.500000	2.259848  
370.000000	2.313934  
370.500000	2.442710  
371.000000	2.633320  
371.500000	2.824927  
372.000000	3.092089  
372.500000	3.351019  
373.000000	3.542075  
373.500000	3.627319  
374.000000	3.607276  
374.500000	3.517798  
375.000000	3.367238  
375.500000	3.287699  
376.000000	3.230126  
376.500000	3.215445  
377.000000	3.225506  
377.500000	3.221719  
378.000000	3.152337  
378.500000	3.035496  
379.000000	2.868823  
379.500000	2.648996  
380.000000	2.530839  
380.500000	2.523883  
381.000000	2.569890  
381.500000	2.664139  
382.000000	2.799226  
382.500000	2.979797  
383.000000	3.176380  
383.500000	3.319599  
384.000000	3.362972  
384.500000	3.364207  
385.000000	3.325538  
385.500000	3.265078  
386.000000	3.130241  
386.500000	2.947717  
387.000000	2.774212  
387.500000	2.660182  
388.000000	2.573703  
388.500000	2.481143  
389.000000	2.419477  
389.500000	2.397390  
390.000000	2.438271  
390.500000	2.494727  
391.000000	2.550138  
391.500000	2.572507  
392.000000	2.663744  
392.500000	2.726067  
393.000000	2.765601  
393.500000	2.791340  
394.000000	2.796774  
394.500000	2.772374  
395.000000	2.747761  
395.500000	2.739113  
396.000000	2.666371  
396.500000	2.672221  
397.000000	2.682199  
397.500000	2.711406  
398.000000	2.728695  
398.500000	2.724145  
399.000000	2.692618  
399.500000	2.608928  
400.000000	2.532851  
400.500000	2.409417  
401.000000	2.320452  
401.500000	2.255170  
402.000000	2.244160  
402.500000	2.301717  
403.000000	2.371211  
403.500000	2.448356  
404.000000	2.452852  
404.500000	2.399425  
405.000000	2.312213  
405.500000	2.167421  
406.000000	1.991533  
406.500000	1.817824  
407.000000	1.749245  
407.500000	1.708853  
408.000000	1.747052  
408.500000	1.801853  
409.000000	1.834549  
409.500000	1.883876  
410.000000	1.920416  
410.500000	1.931859  
411.000000	1.886104  
411.500000	1.888169  
412.000000	1.882473  
412.500000	1.871930  
413.000000	1.846508  
413.500000	1.774716  
414.000000	1.724164  
414.500000	1.676098  
415.000000	1.616148  
415.500000	1.519031  
416.000000	1.460969  
416.500000	1.407089  
417.000000	1.361897  
417.500000	1.300777  
418.000000	1.226493  
418.500000	1.203156  
419.000000	1.214211  
419.500000	1.249498  
420.000000	1.299983  
420.500000	1.371626  
421.000000	1.454068  
421.500000	1.516180  
422.000000	1.534029  
422.500000	1.479212  
423.000000	1.406475  
423.500000	1.318220  
424.000000	1.216942  
424.500000	1.123992  
425.000000	1.061995  
425.500000	1.019766  
426.000000	0.974535  
426.500000	0.942455  
427.000000	0.881534  
427.500000	0.844222  
428.000000	0.815316  
428.500000	0.806948  
429.000000	0.797372  
429.500000	0.812752  
430.000000	0.867789  
430.500000	0.904090  
431.000000	0.933738  
431.500000	0.908670  
432.000000	0.852535  
432.500000	0.765773  
433.000000	0.705066  
433.500000	0.642763  
434.000000	0.597023  
434.500000	0.603234  
435.000000	0.643938  
435.500000	0.716308  
436.000000	0.780921  
436.500000	0.823667  
437.000000	0.834450  
437.500000	0.847597  
438.000000	0.845616  
438.500000	0.815244  
439.000000	0.766833  
439.500000	0.723039  
440.000000	0.693826  
440.500000	0.668227  
441.000000	0.651499  
441.500000	0.650676  
442.000000	0.658043  
442.500000	0.677981  
443.000000	0.690196  
443.500000	0.683248  
444.000000	0.680459  
444.500000	0.696444  

