PE FL                   SPECTRUM    ASCII       PEDS        1.60        
  -1
PM0BD7~1
23/10/09
18:57:18.00
23/10/09
18:57:18.00


594.500000
1









LS55
200.00
10.00
10.00
SCAN
1
20
100
100
0
800
0
2
0
1
7
ON
800 600 
1 0 0
#HDR
-1
-1
#GR
NM

0.00002384185791015625
0.0
300.000000
0.500000
590
8
21.330166
0.703342
#DATA
300.000000	21.300000 
300.500000	21.330166 
301.000000	21.311598 
301.500000	20.570064 
302.000000	19.128834 
302.500000	16.883060 
303.000000	15.202017 
303.500000	14.157575 
304.000000	14.053548 
304.500000	14.502448 
305.000000	15.637013 
305.500000	17.132314 
306.000000	18.502179 
306.500000	19.235843 
307.000000	19.118237 
307.500000	18.485166 
308.000000	17.899481 
308.500000	17.583061 
309.000000	17.217635 
309.500000	17.152440 
310.000000	17.323903 
310.500000	17.902720 
311.000000	17.909456 
311.500000	17.480489 
312.000000	16.612239 
312.500000	15.729132 
313.000000	14.992391 
313.500000	14.036206 
314.000000	13.337349 
314.500000	12.699044 
315.000000	12.822061 
315.500000	12.941937 
316.000000	13.150472 
316.500000	13.321692 
317.000000	13.585669 
317.500000	14.050639 
318.000000	14.263796 
318.500000	14.546773 
319.000000	14.418332 
319.500000	14.350167 
320.000000	14.128101 
320.500000	13.668704 
321.000000	13.437056 
321.500000	13.437084 
322.000000	13.391599 
322.500000	13.646499 
323.000000	14.204171 
323.500000	14.894101 
324.000000	15.366301 
324.500000	15.618691 
325.000000	15.545608 
325.500000	15.451477 
326.000000	15.385367 
326.500000	14.983296 
327.000000	14.831941 
327.500000	14.805436 
328.000000	15.355163 
328.500000	16.016650 
329.000000	16.864137 
329.500000	17.787233 
330.000000	18.632220 
330.500000	19.408028 
331.000000	19.742332 
331.500000	19.819362 
332.000000	19.419150 
332.500000	19.013924 
333.000000	18.516083 
333.500000	18.048191 
334.000000	17.930155 
334.500000	18.090470 
335.000000	18.328954 
335.500000	18.781190 
336.000000	19.007958 
336.500000	18.942731 
337.000000	18.634292 
337.500000	18.072081 
338.000000	17.334649 
338.500000	16.611979 
339.000000	16.174791 
339.500000	15.820156 
340.000000	15.852210 
340.500000	16.063964 
341.000000	16.328559 
341.500000	16.557753 
342.000000	16.736772 
342.500000	16.817496 
343.000000	16.661569 
343.500000	16.554270 
344.000000	16.205908 
344.500000	15.954885 
345.000000	15.807782 
345.500000	15.598937 
346.000000	15.410098 
346.500000	15.236970 
347.000000	15.031712 
347.500000	14.690048 
348.000000	14.275376 
348.500000	13.770492 
349.000000	13.336188 
349.500000	12.960995 
350.000000	12.547614 
350.500000	12.150113 
351.000000	11.903666 
351.500000	11.762671 
352.000000	11.725953 
352.500000	11.711209 
353.000000	11.738344 
353.500000	11.992042 
354.000000	12.319590 
354.500000	12.511760 
355.000000	12.605432 
355.500000	12.632550 
356.000000	12.459273 
356.500000	12.201587 
357.000000	11.842282 
357.500000	11.344270 
358.000000	11.025167 
358.500000	10.711276 
359.000000	10.402990 
359.500000	10.098103 
360.000000	9.915752  
360.500000	9.739772  
361.000000	9.664309  
361.500000	9.669683  
362.000000	9.606013  
362.500000	9.634599  
363.000000	9.652138  
363.500000	9.635557  
364.000000	9.564701  
364.500000	9.468981  
365.000000	9.307256  
365.500000	9.253492  
366.000000	9.237492  
366.500000	9.264852  
367.000000	9.462538  
367.500000	9.678237  
368.000000	9.947999  
368.500000	10.107215 
369.000000	10.177572 
369.500000	10.233819 
370.000000	10.209060 
370.500000	9.961084  
371.000000	9.558069  
371.500000	9.222179  
372.000000	8.953248  
372.500000	8.706309  
373.000000	8.420811  
373.500000	8.180111  
374.000000	8.074591  
374.500000	8.137631  
375.000000	8.120613  
375.500000	7.918703  
376.000000	7.727563  
376.500000	7.580269  
377.000000	7.427736  
377.500000	7.197018  
378.000000	6.932054  
378.500000	6.723271  
379.000000	6.694706  
379.500000	6.756914  
380.000000	6.822653  
380.500000	6.906004  
381.000000	6.987529  
381.500000	7.063908  
382.000000	7.144576  
382.500000	7.226556  
383.000000	7.252862  
383.500000	7.309777  
384.000000	7.340758  
384.500000	7.388883  
385.000000	7.385004  
385.500000	7.213565  
386.000000	6.992343  
386.500000	6.746154  
387.000000	6.394039  
387.500000	6.092873  
388.000000	5.870551  
388.500000	5.681450  
389.000000	5.640109  
389.500000	5.782468  
390.000000	5.868600  
390.500000	6.016162  
391.000000	6.201669  
391.500000	6.218927  
392.000000	6.133423  
392.500000	5.947275  
393.000000	5.599642  
393.500000	5.177809  
394.000000	4.898695  
394.500000	4.581426  
395.000000	4.423208  
395.500000	4.478769  
396.000000	4.612546  
396.500000	4.830980  
397.000000	5.054916  
397.500000	5.173785  
398.000000	5.116551  
398.500000	5.040269  
399.000000	4.833131  
399.500000	4.568634  
400.000000	4.328478  
400.500000	4.133177  
401.000000	4.026107  
401.500000	3.947373  
402.000000	3.875538  
402.500000	3.791909  
403.000000	3.681427  
403.500000	3.518900  
404.000000	3.362889  
404.500000	3.239098  
405.000000	3.252223  
405.500000	3.406962  
406.000000	3.624045  
406.500000	3.808668  
407.000000	4.031835  
407.500000	4.186891  
408.000000	4.219686  
408.500000	4.134804  
409.000000	3.931890  
409.500000	3.730161  
410.000000	3.604005  
410.500000	3.614019  
411.000000	3.579520  
411.500000	3.657404  
412.000000	3.818009  
412.500000	3.978621  
413.000000	4.079511  
413.500000	4.060099  
414.000000	3.983565  
414.500000	3.904658  
415.000000	3.913640  
415.500000	3.856052  
416.000000	3.788014  
416.500000	3.760430  
417.000000	3.776281  
417.500000	3.782663  
418.000000	3.733471  
418.500000	3.661190  
419.000000	3.582279  
419.500000	3.544045  
420.000000	3.510463  
420.500000	3.440203  
421.000000	3.370986  
421.500000	3.343531  
422.000000	3.304917  
422.500000	3.250921  
423.000000	3.194908  
423.500000	3.118830  
424.000000	3.036359  
424.500000	2.996290  
425.000000	2.967707  
425.500000	2.938646  
426.000000	2.922036  
426.500000	2.902682  
427.000000	2.919418  
427.500000	2.979845  
428.000000	2.983929  
428.500000	2.946274  
429.000000	2.907038  
429.500000	2.881873  
430.000000	2.874865  
430.500000	2.848458  
431.000000	2.814884  
431.500000	2.829700  
432.000000	2.907763  
432.500000	2.975441  
433.000000	3.018483  
433.500000	3.027517  
434.000000	3.015242  
434.500000	3.021350  
435.000000	2.984372  
435.500000	2.930593  
436.000000	2.889994  
436.500000	2.876855  
437.000000	2.871425  
437.500000	2.865253  
438.000000	2.864310  
438.500000	2.832996  
439.000000	2.813798  
439.500000	2.789253  
440.000000	2.759082  
440.500000	2.726801  
441.000000	2.693116  
441.500000	2.657023  
442.000000	2.620367  
442.500000	2.611496  
443.000000	2.576597  
443.500000	2.535973  
444.000000	2.500420  
444.500000	2.474186  
445.000000	2.448090  
445.500000	2.433573  
446.000000	2.428663  
446.500000	2.434331  
447.000000	2.471430  
447.500000	2.501038  
448.000000	2.515681  
448.500000	2.513588  
449.000000	2.504246  
449.500000	2.474050  
450.000000	2.441062  
450.500000	2.401497  
451.000000	2.374558  
451.500000	2.361868  
452.000000	2.357176  
452.500000	2.360090  
453.000000	2.364035  
453.500000	2.371636  
454.000000	2.358572  
454.500000	2.333352  
455.000000	2.302719  
455.500000	2.272328  
456.000000	2.240854  
456.500000	2.204969  
457.000000	2.178193  
457.500000	2.155020  
458.000000	2.133582  
458.500000	2.104769  
459.000000	2.062576  
459.500000	2.027079  
460.000000	1.989433  
460.500000	1.960574  
461.000000	1.931661  
461.500000	1.919658  
462.000000	1.929023  
462.500000	1.959639  
463.000000	1.998950  
463.500000	2.026132  
464.000000	2.049695  
464.500000	2.047872  
465.000000	2.020204  
465.500000	1.965766  
466.000000	1.914064  
466.500000	1.857103  
467.000000	1.809564  
467.500000	1.783623  
468.000000	1.781287  
468.500000	1.795447  
469.000000	1.816749  
469.500000	1.840255  
470.000000	1.865184  
470.500000	1.899336  
471.000000	1.921864  
471.500000	1.938616  
472.000000	1.961614  
472.500000	1.991685  
473.000000	2.011401  
473.500000	2.015466  
474.000000	2.009176  
474.500000	1.992064  
475.000000	1.975615  
475.500000	1.949498  
476.000000	1.918252  
476.500000	1.897180  
477.000000	1.882320  
477.500000	1.869180  
478.000000	1.846507  
478.500000	1.843872  
479.000000	1.841700  
479.500000	1.826516  
480.000000	1.797874  
480.500000	1.768740  
481.000000	1.747825  
481.500000	1.726440  
482.000000	1.714643  
482.500000	1.690312  
483.000000	1.696125  
483.500000	1.711231  
484.000000	1.726714  
484.500000	1.734865  
485.000000	1.747980  
485.500000	1.769593  
486.000000	1.777188  
486.500000	1.794518  
487.000000	1.777580  
487.500000	1.771901  
488.000000	1.763045  
488.500000	1.750856  
489.000000	1.735845  
489.500000	1.731786  
490.000000	1.752759  
490.500000	1.781224  
491.000000	1.844037  
491.500000	1.906853  
492.000000	1.969015  
492.500000	2.017497  
493.000000	2.043596  
493.500000	2.049139  
494.000000	2.041554  
494.500000	2.040905  
495.000000	2.043813  
495.500000	2.066271  
496.000000	2.098993  
496.500000	2.138411  
497.000000	2.178020  
497.500000	2.214798  
498.000000	2.235169  
498.500000	2.230016  
499.000000	2.213025  
499.500000	2.199800  
500.000000	2.195603  
500.500000	2.188257  
501.000000	2.171110  
501.500000	2.144362  
502.000000	2.128958  
502.500000	2.122254  
503.000000	2.111115  
503.500000	2.099650  
504.000000	2.094048  
504.500000	2.112962  
505.000000	2.130546  
505.500000	2.147429  
506.000000	2.148670  
506.500000	2.149427  
507.000000	2.151361  
507.500000	2.160207  
508.000000	2.157388  
508.500000	2.135898  
509.000000	2.116376  
509.500000	2.086152  
510.000000	2.055244  
510.500000	2.027285  
511.000000	1.994808  
511.500000	1.960296  
512.000000	1.956288  
512.500000	1.973094  
513.000000	2.002660  
513.500000	2.029074  
514.000000	2.043572  
514.500000	2.047226  
515.000000	2.046632  
515.500000	2.032837  
516.000000	2.003263  
516.500000	1.984158  
517.000000	1.968176  
517.500000	1.984340  
518.000000	1.995274  
518.500000	2.013307  
519.000000	2.017743  
519.500000	2.022160  
520.000000	2.023322  
520.500000	2.000806  
521.000000	1.951510  
521.500000	1.877419  
522.000000	1.826681  
522.500000	1.762512  
523.000000	1.725862  
523.500000	1.695885  
524.000000	1.690387  
524.500000	1.721747  
525.000000	1.757948  
525.500000	1.773615  
526.000000	1.753584  
526.500000	1.730510  
527.000000	1.683784  
527.500000	1.633203  
528.000000	1.572412  
528.500000	1.525200  
529.000000	1.531265  
529.500000	1.558640  
530.000000	1.586519  
530.500000	1.593200  
531.000000	1.581141  
531.500000	1.562334  
532.000000	1.508202  
532.500000	1.441062  
533.000000	1.375464  
533.500000	1.328408  
534.000000	1.313518  
534.500000	1.317045  
535.000000	1.325942  
535.500000	1.337092  
536.000000	1.360582  
536.500000	1.352825  
537.000000	1.346092  
537.500000	1.327802  
538.000000	1.288681  
538.500000	1.254521  
539.000000	1.216015  
539.500000	1.185370  
540.000000	1.178153  
540.500000	1.193920  
541.000000	1.205575  
541.500000	1.239244  
542.000000	1.285869  
542.500000	1.332282  
543.000000	1.387975  
543.500000	1.428890  
544.000000	1.446204  
544.500000	1.446707  
545.000000	1.446574  
545.500000	1.435549  
546.000000	1.436899  
546.500000	1.420526  
547.000000	1.401365  
547.500000	1.388528  
548.000000	1.382776  
548.500000	1.386272  
549.000000	1.370374  
549.500000	1.367340  
550.000000	1.369838  
550.500000	1.398377  
551.000000	1.431829  
551.500000	1.445824  
552.000000	1.451508  
552.500000	1.438911  
553.000000	1.419341  
553.500000	1.356743  
554.000000	1.272411  
554.500000	1.158628  
555.000000	1.070136  
555.500000	1.012665  
556.000000	0.974685  
556.500000	0.967916  
557.000000	0.962996  
557.500000	0.985757  
558.000000	1.026404  
558.500000	1.098045  
559.000000	1.155370  
559.500000	1.209711  
560.000000	1.274404  
560.500000	1.343247  
561.000000	1.412599  
561.500000	1.451530  
562.000000	1.448074  
562.500000	1.430769  
563.000000	1.413571  
563.500000	1.370761  
564.000000	1.310706  
564.500000	1.255257  
565.000000	1.217518  
565.500000	1.203679  
566.000000	1.201141  
566.500000	1.168167  
567.000000	1.140806  
567.500000	1.124615  
568.000000	1.115223  
568.500000	1.087987  
569.000000	1.062962  
569.500000	1.035536  
570.000000	1.020576  
570.500000	1.013244  
571.000000	0.986520  
571.500000	0.964673  
572.000000	0.945152  
572.500000	0.933648  
573.000000	0.922754  
573.500000	0.906736  
574.000000	0.889772  
574.500000	0.896412  
575.000000	0.905838  
575.500000	0.918260  
576.000000	0.932130  
576.500000	0.954778  
577.000000	0.993830  
577.500000	1.037154  
578.000000	1.064337  
578.500000	1.050367  
579.000000	1.024176  
579.500000	0.972757  
580.000000	0.903780  
580.500000	0.823136  
581.000000	0.750811  
581.500000	0.705392  
582.000000	0.703342  
582.500000	0.709430  
583.000000	0.719104  
583.500000	0.744577  
584.000000	0.779416  
584.500000	0.803386  
585.000000	0.819340  
585.500000	0.822562  
586.000000	0.823859  
586.500000	0.838505  
587.000000	0.853870  
587.500000	0.875808  
588.000000	0.888589  
588.500000	0.892623  
589.000000	0.877046  
589.500000	0.861814  
590.000000	0.854040  
590.500000	0.841781  
591.000000	0.843035  
591.500000	0.841006  
592.000000	0.869792  
592.500000	0.913689  
593.000000	0.954756  
593.500000	0.965860  
594.000000	0.973478  
594.500000	0.969025  

