PE FL                   SPECTRUM    ASCII       PEDS        1.60        
  -1
PM1BC7~1
23/10/09
18:51:55.00
23/10/09
18:51:55.00


594.500000
1









LS55
20.00
10.00
10.00
SCAN
1
20
100
100
0
800
0
2
0
1
7
ON
800 600 
1 0 0
#HDR
-1
-1
#GR
NM

0.00002384185791015625
0.0
300.000000
0.500000
590
8
1013.598112
-5.000000
#DATA
300.000000	-5.000000   
300.500000	-4.178357   
301.000000	-3.322893   
301.500000	-2.494291   
302.000000	-2.224210   
302.500000	-1.955405   
303.000000	-2.143147   
303.500000	-2.152496   
304.000000	-2.052832   
304.500000	-1.689290   
305.000000	-1.073201   
305.500000	0.241918    
306.000000	2.133685    
306.500000	4.157465    
307.000000	6.498363    
307.500000	8.670321    
308.000000	10.553103   
308.500000	12.150940   
309.000000	13.380501   
309.500000	14.186356   
310.000000	15.306115   
310.500000	16.701858   
311.000000	18.365506   
311.500000	20.646047   
312.000000	23.601687   
312.500000	27.528222   
313.000000	32.526219   
313.500000	38.530193   
314.000000	45.361590   
314.500000	52.966599   
315.000000	61.110787   
315.500000	69.530545   
316.000000	77.882520   
316.500000	86.136198   
317.000000	94.611667   
317.500000	103.787937  
318.000000	113.935294  
318.500000	125.180364  
319.000000	137.009970  
319.500000	149.477315  
320.000000	163.188541  
320.500000	178.222277  
321.000000	193.877544  
321.500000	210.376180  
322.000000	227.906801  
322.500000	247.671843  
323.000000	268.188060  
323.500000	291.716708  
324.000000	317.912170  
324.500000	349.737994  
325.000000	386.640447  
325.500000	429.770567  
326.000000	479.314228  
326.500000	536.314564  
327.000000	601.325402  
327.500000	668.861827  
328.000000	738.055812  
328.500000	804.083125  
329.000000	865.586203  
329.500000	917.381778  
330.000000	957.719697  
330.500000	985.041016  
331.000000	1001.126157 
331.500000	1009.670015 
332.000000	1010.636711 
332.500000	1008.235483 
333.000000	1004.070946 
333.500000	1001.536195 
334.000000	999.999000  
334.500000	999.999000  
335.000000	999.999000  
335.500000	999.999000  
336.000000	999.999000  
336.500000	999.999000  
337.000000	999.999000  
337.500000	999.999000  
338.000000	999.999000  
338.500000	999.999000  
339.000000	999.999000  
339.500000	999.999000  
340.000000	999.999000  
340.500000	999.999000  
341.000000	1000.030558 
341.500000	1001.057138 
342.000000	1004.008995 
342.500000	1008.065821 
343.000000	1012.360979 
343.500000	1013.598112 
344.000000	1006.752025 
344.500000	988.598408  
345.000000	957.371961  
345.500000	910.582559  
346.000000	848.760523  
346.500000	776.581740  
347.000000	698.716162  
347.500000	621.410275  
348.000000	549.533820  
348.500000	483.998591  
349.000000	425.997204  
349.500000	377.306535  
350.000000	335.039269  
350.500000	296.292282  
351.000000	261.044413  
351.500000	228.705482  
352.000000	199.575427  
352.500000	174.950536  
353.000000	153.287660  
353.500000	133.711291  
354.000000	117.568988  
354.500000	103.655333  
355.000000	90.775473   
355.500000	79.350069   
356.000000	69.771638   
356.500000	61.299295   
357.000000	54.357010   
357.500000	48.752954   
358.000000	44.266228   
358.500000	41.105406   
359.000000	38.413876   
359.500000	35.805048   
360.000000	33.448200   
360.500000	31.490769   
361.000000	29.744572   
361.500000	28.318499   
362.000000	27.225178   
362.500000	26.636447   
363.000000	26.383410   
363.500000	26.174104   
364.000000	25.884310   
364.500000	25.553276   
365.000000	25.143698   
365.500000	24.627593   
366.000000	24.120235   
366.500000	23.479340   
367.000000	22.931486   
367.500000	22.482778   
368.000000	22.114083   
368.500000	21.749001   
369.000000	21.458672   
369.500000	21.385204   
370.000000	21.475478   
370.500000	22.100863   
371.000000	22.587471   
371.500000	23.000685   
372.000000	23.355920   
372.500000	23.466107   
373.000000	23.299280   
373.500000	22.809013   
374.000000	22.379409   
374.500000	21.857091   
375.000000	21.762428   
375.500000	21.719518   
376.000000	21.776736   
376.500000	21.983471   
377.000000	22.037240   
377.500000	22.024623   
378.000000	21.708765   
378.500000	21.520232   
379.000000	21.235943   
379.500000	21.220812   
380.000000	21.309249   
380.500000	21.462967   
381.000000	21.676141   
381.500000	21.655384   
382.000000	21.662393   
382.500000	21.387329   
383.000000	21.265019   
383.500000	21.145787   
384.000000	21.080409   
384.500000	21.112802   
385.000000	21.260719   
385.500000	21.492432   
386.000000	21.509465   
386.500000	21.582430   
387.000000	21.447529   
387.500000	21.285940   
388.000000	21.140432   
388.500000	20.998884   
389.000000	20.776307   
389.500000	20.576509   
390.000000	20.417236   
390.500000	20.225947   
391.000000	20.088805   
391.500000	19.855085   
392.000000	19.602895   
392.500000	19.639967   
393.000000	19.818752   
393.500000	19.960033   
394.000000	20.061593   
394.500000	20.121310   
395.000000	20.285374   
395.500000	20.441399   
396.000000	20.367472   
396.500000	20.058550   
397.000000	19.804037   
397.500000	19.630981   
398.000000	19.419450   
398.500000	19.233626   
399.000000	19.018239   
399.500000	18.964275   
400.000000	19.077686   
400.500000	19.230302   
401.000000	19.345972   
401.500000	19.490664   
402.000000	19.721618   
402.500000	19.962574   
403.000000	20.194451   
403.500000	20.386492   
404.000000	20.546220   
404.500000	20.675204   
405.000000	20.790652   
405.500000	20.808539   
406.000000	20.771027   
406.500000	20.574259   
407.000000	20.345932   
407.500000	20.113066   
408.000000	19.963873   
408.500000	19.953234   
409.000000	20.020379   
409.500000	20.166061   
410.000000	20.269412   
410.500000	20.476954   
411.000000	20.454955   
411.500000	20.304111   
412.000000	20.057632   
412.500000	19.743847   
413.000000	19.548964   
413.500000	19.397555   
414.000000	19.376538   
414.500000	19.345759   
415.000000	19.596661   
415.500000	19.840208   
416.000000	19.935157   
416.500000	19.936661   
417.000000	19.847584   
417.500000	19.782837   
418.000000	19.620898   
418.500000	19.512242   
419.000000	19.315713   
419.500000	19.193037   
420.000000	19.143244   
420.500000	19.016009   
421.000000	18.883264   
421.500000	18.753758   
422.000000	18.717591   
422.500000	18.635601   
423.000000	18.596197   
423.500000	18.459668   
424.000000	18.268663   
424.500000	18.139339   
425.000000	17.997676   
425.500000	17.884320   
426.000000	17.763158   
426.500000	17.750230   
427.000000	17.871566   
427.500000	18.103057   
428.000000	18.366138   
428.500000	18.543716   
429.000000	18.685564   
429.500000	18.775481   
430.000000	18.833127   
430.500000	18.722049   
431.000000	18.597555   
431.500000	18.548467   
432.000000	18.581438   
432.500000	18.695896   
433.000000	18.817178   
433.500000	18.922306   
434.000000	19.022953   
434.500000	19.177496   
435.000000	19.262952   
435.500000	19.304965   
436.000000	19.345400   
436.500000	19.356624   
437.000000	19.380923   
437.500000	19.476294   
438.000000	19.584001   
438.500000	19.590540   
439.000000	19.583526   
439.500000	19.630407   
440.000000	19.695041   
440.500000	19.724598   
441.000000	19.738971   
441.500000	19.776300   
442.000000	19.901751   
442.500000	20.127723   
443.000000	20.246863   
443.500000	20.279948   
444.000000	20.335737   
444.500000	20.385342   
445.000000	20.381413   
445.500000	20.320206   
446.000000	20.249453   
446.500000	20.126273   
447.000000	20.042526   
447.500000	19.881168   
448.000000	19.689260   
448.500000	19.543522   
449.000000	19.471361   
449.500000	19.453101   
450.000000	19.476001   
450.500000	19.677921   
451.000000	19.951104   
451.500000	20.279737   
452.000000	20.552438   
452.500000	20.748459   
453.000000	20.857892   
453.500000	20.857776   
454.000000	20.773108   
454.500000	20.534475   
455.000000	20.250132   
455.500000	19.961052   
456.000000	19.766868   
456.500000	19.619412   
457.000000	19.553319   
457.500000	19.577398   
458.000000	19.694091   
458.500000	19.937346   
459.000000	20.163350   
459.500000	20.345716   
460.000000	20.431118   
460.500000	20.500172   
461.000000	20.514508   
461.500000	20.505098   
462.000000	20.434024   
462.500000	20.365482   
463.000000	20.356229   
463.500000	20.331827   
464.000000	20.291968   
464.500000	20.211016   
465.000000	20.125359   
465.500000	20.010193   
466.000000	19.994821   
466.500000	19.990906   
467.000000	20.037151   
467.500000	20.121465   
468.000000	20.193056   
468.500000	20.241006   
469.000000	20.294909   
469.500000	20.313298   
470.000000	20.169409   
470.500000	20.039708   
471.000000	19.868936   
471.500000	19.685574   
472.000000	19.474218   
472.500000	19.281510   
473.000000	19.123864   
473.500000	19.048397   
474.000000	19.092543   
474.500000	19.055577   
475.000000	19.010013   
475.500000	18.925421   
476.000000	18.783268   
476.500000	18.510634   
477.000000	18.185729   
477.500000	17.871304   
478.000000	17.569004   
478.500000	17.368682   
479.000000	17.244396   
479.500000	17.207483   
480.000000	17.227488   
480.500000	17.236171   
481.000000	17.128372   
481.500000	16.939451   
482.000000	16.718487   
482.500000	16.400144   
483.000000	16.066530   
483.500000	15.784597   
484.000000	15.596566   
484.500000	15.512382   
485.000000	15.510014   
485.500000	15.563061   
486.000000	15.651404   
486.500000	15.715524   
487.000000	15.712951   
487.500000	15.629920   
488.000000	15.537539   
488.500000	15.494530   
489.000000	15.492850   
489.500000	15.511810   
490.000000	15.632936   
490.500000	15.815103   
491.000000	15.967918   
491.500000	16.026079   
492.000000	16.012799   
492.500000	15.949387   
493.000000	15.874596   
493.500000	15.815602   
494.000000	15.724265   
494.500000	15.748076   
495.000000	15.831329   
495.500000	15.940103   
496.000000	16.019396   
496.500000	16.008487   
497.000000	15.921104   
497.500000	15.760673   
498.000000	15.592463   
498.500000	15.342212   
499.000000	15.114048   
499.500000	14.953974   
500.000000	14.976653   
500.500000	15.100626   
501.000000	15.215699   
501.500000	15.308929   
502.000000	15.390495   
502.500000	15.458332   
503.000000	15.406370   
503.500000	15.246867   
504.000000	15.064953   
504.500000	15.009793   
505.000000	15.100545   
505.500000	15.258285   
506.000000	15.394123   
506.500000	15.644906   
507.000000	15.955435   
507.500000	16.211182   
508.000000	16.286394   
508.500000	16.264066   
509.000000	16.200565   
509.500000	16.080950   
510.000000	15.956840   
510.500000	15.753059   
511.000000	15.643725   
511.500000	15.617641   
512.000000	15.589656   
512.500000	15.504976   
513.000000	15.434831   
513.500000	15.402240   
514.000000	15.356039   
514.500000	15.300179   
515.000000	15.178658   
515.500000	15.063486   
516.000000	14.993664   
516.500000	14.993146   
517.000000	15.007157   
517.500000	14.952577   
518.000000	14.924592   
518.500000	14.905607   
519.000000	14.852467   
519.500000	14.752281   
520.000000	14.667488   
520.500000	14.576532   
521.000000	14.492770   
521.500000	14.488573   
522.000000	14.440758   
522.500000	14.438772   
523.000000	14.439338   
523.500000	14.403845   
524.000000	14.286633   
524.500000	14.196870   
525.000000	14.085285   
525.500000	13.925349   
526.000000	13.826985   
526.500000	13.753298   
527.000000	13.763800   
527.500000	13.809784   
528.000000	13.820579   
528.500000	13.719964   
529.000000	13.623848   
529.500000	13.544342   
530.000000	13.420925   
530.500000	13.242464   
531.000000	13.133849   
531.500000	13.072029   
532.000000	13.034577   
532.500000	13.008871   
533.000000	12.942378   
533.500000	12.868323   
534.000000	12.790019   
534.500000	12.673857   
535.000000	12.467819   
535.500000	12.343878   
536.000000	12.288167   
536.500000	12.279177   
537.000000	12.339910   
537.500000	12.390610   
538.000000	12.494857   
538.500000	12.635426   
539.000000	12.757003   
539.500000	12.731004   
540.000000	12.651803   
540.500000	12.554252   
541.000000	12.429256   
541.500000	12.342616   
542.000000	12.246334   
542.500000	12.179179   
543.000000	12.258979   
543.500000	12.520187   
544.000000	12.868970   
544.500000	13.226091   
545.000000	13.547352   
545.500000	13.842423   
546.000000	14.095710   
546.500000	14.284124   
547.000000	14.306616   
547.500000	14.246000   
548.000000	14.223709   
548.500000	14.245452   
549.000000	14.263466   
549.500000	14.226637   
550.000000	14.162133   
550.500000	14.034432   
551.000000	13.959171   
551.500000	13.800146   
552.000000	13.605179   
552.500000	13.459739   
553.000000	13.421112   
553.500000	13.464809   
554.000000	13.552306   
554.500000	13.655166   
555.000000	13.648150   
555.500000	13.637584   
556.000000	13.587624   
556.500000	13.493304   
557.000000	13.349194   
557.500000	13.193253   
558.000000	13.033296   
558.500000	12.889785   
559.000000	12.755043   
559.500000	12.510308   
560.000000	12.269149   
560.500000	12.086355   
561.000000	11.927354   
561.500000	11.797341   
562.000000	11.710077   
562.500000	11.655053   
563.000000	11.575926   
563.500000	11.502339   
564.000000	11.372431   
564.500000	11.217287   
565.000000	11.105664   
565.500000	11.018753   
566.000000	11.029703   
566.500000	11.076202   
567.000000	11.203519   
567.500000	11.293762   
568.000000	11.312847   
568.500000	11.280736   
569.000000	11.193484   
569.500000	11.066383   
570.000000	10.900546   
570.500000	10.811513   
571.000000	10.708899   
571.500000	10.673065   
572.000000	10.658635   
572.500000	10.652684   
573.000000	10.660295   
573.500000	10.669550   
574.000000	10.674756   
574.500000	10.675712   
575.000000	10.732912   
575.500000	10.763434   
576.000000	10.755026   
576.500000	10.688303   
577.000000	10.639649   
577.500000	10.574842   
578.000000	10.481099   
578.500000	10.380484   
579.000000	10.306264   
579.500000	10.253547   
580.000000	10.251174   
580.500000	10.236934   
581.000000	10.139317   
581.500000	10.050179   
582.000000	9.952551    
582.500000	9.784043    
583.000000	9.583055    
583.500000	9.390990    
584.000000	9.227111    
584.500000	9.136660    
585.000000	9.108393    
585.500000	9.092375    
586.000000	9.168432    
586.500000	9.318620    
587.000000	9.472964    
587.500000	9.603931    
588.000000	9.673255    
588.500000	9.716425    
589.000000	9.782330    
589.500000	9.856375    
590.000000	9.849594    
590.500000	9.849345    
591.000000	9.859685    
591.500000	9.882320    
592.000000	9.881944    
592.500000	9.825872    
593.000000	9.723810    
593.500000	9.604188    
594.000000	9.540180    
594.500000	9.447286    

